File: data/spectra_ascii/AsphaltTrockenVerschmutzung2___corthum00452.txt
Wavelength (nm),Reflectance
350.0,0.0791815
358.0,0.0812832
366.0,0.0830838
374.0,0.0858954
382.0,0.0891558
390.0,0.0916953
398.0,0.0944988
406.0,0.0966925
414.0,0.0991852
422.0,0.101806
430.0,0.104857
438.0,0.107782
446.0,0.110595
454.0,0.113072
462.0,0.115355
470.0,0.117659
478.0,0.119719
486.0,0.122165
494.0,0.124927
502.0,0.127818
510.0,0.130634
518.0,0.133663
526.0,0.136755
534.0,0.140345
542.0,0.144451
550.0,0.148822
558.0,0.153927
566.0,0.158789
574.0,0.163451
582.0,0.167652
590.0,0.171652
598.0,0.174865
606.0,0.177928
614.0,0.180671
622.0,0.18332
630.0,0.185748
638.0,0.188176
646.0,0.190455
654.0,0.192517
662.0,0.194497
670.0,0.196292
678.0,0.197911
686.0,0.199422
694.0,0.200919
702.0,0.202158
710.0,0.20331
718.0,0.204653
726.0,0.205972
734.0,0.20727
742.0,0.208785
750.0,0.210247
758.0,0.211915
766.0,0.213671
774.0,0.214916
782.0,0.216405
790.0,0.217799
798.0,0.219186
806.0,0.220533
814.0,0.221844
822.0,0.222946
830.0,0.223972
838.0,0.224986
846.0,0.226039
854.0,0.22706
862.0,0.227837
870.0,0.228559
878.0,0.229435
886.0,0.230429
894.0,0.231388
902.0,0.23212
910.0,0.232912
918.0,0.233563
926.0,0.234358
934.0,0.232898
942.0,0.233657
950.0,0.23438
958.0,0.23479
966.0,0.237148
974.0,0.237815
982.0,0.238173
990.0,0.238442
998.0,0.238561
1006.0,0.244172
1014.0,0.244593
1022.0,0.245057
1030.0,0.245783
1038.0,0.245649
1046.0,0.245583
1054.0,0.246363
1062.0,0.24688
1070.0,0.246372
1078.0,0.24703
1086.0,0.247589
1094.0,0.247985
1102.0,0.248201
1110.0,0.249062
1118.0,0.248835
1126.0,0.249327
1134.0,0.248242
1142.0,0.249842
1150.0,0.249804
1158.0,0.251076
1166.0,0.251309
1174.0,0.25198
1182.0,0.252345
1190.0,0.252988
1198.0,0.253461
1206.0,0.253652
1214.0,0.253936
1222.0,0.2537
1230.0,0.253977
1238.0,0.253614
1246.0,0.253928
1254.0,0.254604
1262.0,0.254405
1270.0,0.253764
1278.0,0.253968
1286.0,0.254359
1294.0,0.254547
1302.0,0.254681
1310.0,0.254862
1318.0,0.255014
1326.0,0.255529
1334.0,0.255841
1342.0,0.256708
1350.0,0.255915
1358.0,0.259062
1366.0,0.421535
1374.0,0.469281
1382.0,0.343249
1390.0,0.249116
1398.0,0.25951
1406.0,0.25251
1414.0,0.250199
1422.0,0.254796
1430.0,0.257711
1438.0,0.258398
1446.0,0.258127
1454.0,0.260127
1462.0,0.26074
1470.0,0.259204
1478.0,0.26225
1486.0,0.263296
1494.0,0.264235
1502.0,0.264325
1510.0,0.264552
1518.0,0.264738
1526.0,0.264822
1534.0,0.26471
1542.0,0.264419
1550.0,0.264804
1558.0,0.264522
1566.0,0.264125
1574.0,0.263895
1582.0,0.263584
1590.0,0.263599
1598.0,0.263308
1606.0,0.262362
1614.0,0.261732
1622.0,0.26107
1630.0,0.262031
1638.0,0.261076
1646.0,0.260436
1654.0,0.260307
1662.0,0.261127
1670.0,0.261326
1678.0,0.2613
1686.0,0.261186
1694.0,0.260762
1702.0,0.261281
1710.0,0.26151
1718.0,0.261016
1726.0,0.261024
1734.0,0.260386
1742.0,0.261858
1750.0,0.261757
1758.0,0.259798
1766.0,0.26058
1774.0,0.260711
1782.0,0.259934
1790.0,0.259861
1798.0,0.258511
1806.0,0.26968
1814.0,0.290512
1822.0,0.219073
1830.0,0.342118
1838.0,0.0
1846.0,0.0933155
1854.0,0.2494
1862.0,1.0
1870.0,0.480164
1878.0,1.0
1886.0,0.297066
1894.0,0.254776
1902.0,0.283131
1910.0,0.665092
1918.0,0.612497
1926.0,0.259956
1934.0,0.252502
1942.0,0.258744
1950.0,0.232856
1958.0,0.25987
1966.0,0.256635
1974.0,0.256471
1982.0,0.260004
1990.0,0.254447
1998.0,0.260997
2006.0,0.25942
2014.0,0.261387
2022.0,0.257117
2030.0,0.258791
2038.0,0.259388
2046.0,0.2649
2054.0,0.261198
2062.0,0.265656
2070.0,0.26861
2078.0,0.265831
2086.0,0.264156
2094.0,0.26804
2102.0,0.265506
2110.0,0.266344
2118.0,0.26746
2126.0,0.266211
2134.0,0.266216
2142.0,0.263769
2150.0,0.266531
2158.0,0.263608
2166.0,0.263046
2174.0,0.257728
2182.0,0.261084
2190.0,0.254802
2198.0,0.253911
2206.0,0.252163
2214.0,0.250703
2222.0,0.252476
2230.0,0.249735
2238.0,0.249214
2246.0,0.252665
2254.0,0.246404
2262.0,0.253034
2270.0,0.254218
2278.0,0.249778
2286.0,0.251136
2294.0,0.247668
2302.0,0.244568
2310.0,0.250565
2318.0,0.250203
2326.0,0.249458
2334.0,0.245454
2342.0,0.253251
2350.0,0.243888
2358.0,0.248211
2366.0,0.24544
2374.0,0.243327
2382.0,0.243784
2390.0,0.230174
2398.0,0.255417
2406.0,0.251095
2414.0,0.230432
2422.0,0.260318
2430.0,0.256333
2438.0,0.222357
2446.0,0.326634
2454.0,0.210247
2462.0,0.255336
2470.0,0.243376
2478.0,0.282669
2486.0,0.342627
2494.0,0.479278
2500.0,0.238978