File: data/spectra_ascii/AsphaltTrockenVerschmutzung2___corthum00448.txt
Wavelength (nm),Reflectance
350.0,0.417654
358.0,0.418721
366.0,0.41985
374.0,0.421032
382.0,0.423781
390.0,0.425385
398.0,0.426936
406.0,0.428472
414.0,0.430092
422.0,0.431646
430.0,0.43358
438.0,0.435347
446.0,0.43712
454.0,0.438705
462.0,0.440005
470.0,0.441499
478.0,0.442698
486.0,0.444214
494.0,0.445973
502.0,0.447688
510.0,0.449454
518.0,0.451171
526.0,0.453013
534.0,0.455234
542.0,0.457764
550.0,0.460419
558.0,0.463546
566.0,0.466454
574.0,0.469433
582.0,0.471996
590.0,0.474454
598.0,0.476558
606.0,0.478465
614.0,0.480122
622.0,0.481897
630.0,0.483348
638.0,0.484982
646.0,0.486438
654.0,0.487765
662.0,0.489227
670.0,0.490453
678.0,0.491758
686.0,0.492852
694.0,0.494235
702.0,0.495275
710.0,0.496189
718.0,0.497623
726.0,0.498672
734.0,0.4997
742.0,0.501001
750.0,0.502129
758.0,0.503447
766.0,0.504766
774.0,0.505666
782.0,0.506802
790.0,0.507885
798.0,0.508825
806.0,0.509746
814.0,0.510764
822.0,0.511675
830.0,0.512447
838.0,0.513148
846.0,0.513908
854.0,0.514635
862.0,0.515121
870.0,0.515652
878.0,0.516193
886.0,0.517196
894.0,0.518162
902.0,0.518426
910.0,0.519706
918.0,0.5195
926.0,0.520386
934.0,0.519236
942.0,0.520149
950.0,0.52146
958.0,0.520946
966.0,0.522683
974.0,0.522744
982.0,0.523463
990.0,0.52367
998.0,0.52436
1006.0,0.492223
1014.0,0.492529
1022.0,0.493296
1030.0,0.493867
1038.0,0.493103
1046.0,0.493313
1054.0,0.494815
1062.0,0.494277
1070.0,0.493477
1078.0,0.494486
1086.0,0.494811
1094.0,0.495951
1102.0,0.495916
1110.0,0.497728
1118.0,0.500405
1126.0,0.499489
1134.0,0.495536
1142.0,0.497214
1150.0,0.496721
1158.0,0.496972
1166.0,0.49704
1174.0,0.498134
1182.0,0.4981
1190.0,0.499082
1198.0,0.4996
1206.0,0.499104
1214.0,0.499545
1222.0,0.499498
1230.0,0.500568
1238.0,0.499605
1246.0,0.500446
1254.0,0.501419
1262.0,0.501776
1270.0,0.500044
1278.0,0.500135
1286.0,0.500487
1294.0,0.501248
1302.0,0.501339
1310.0,0.502387
1318.0,0.502621
1326.0,0.503976
1334.0,0.503723
1342.0,0.506919
1350.0,0.512816
1358.0,0.574938
1366.0,0.68186
1374.0,1.0
1382.0,0.800413
1390.0,0.566493
1398.0,0.533474
1406.0,0.503924
1414.0,0.505792
1422.0,0.508435
1430.0,0.507052
1438.0,0.509337
1446.0,0.507319
1454.0,0.50877
1462.0,0.511861
1470.0,0.510762
1478.0,0.511917
1486.0,0.511256
1494.0,0.512707
1502.0,0.513985
1510.0,0.513827
1518.0,0.514854
1526.0,0.515657
1534.0,0.515605
1542.0,0.515863
1550.0,0.51635
1558.0,0.517178
1566.0,0.517389
1574.0,0.518006
1582.0,0.517726
1590.0,0.517916
1598.0,0.518491
1606.0,0.517687
1614.0,0.517443
1622.0,0.517082
1630.0,0.519921
1638.0,0.518505
1646.0,0.518805
1654.0,0.518995
1662.0,0.519284
1670.0,0.520806
1678.0,0.521946
1686.0,0.521779
1694.0,0.521489
1702.0,0.522673
1710.0,0.523115
1718.0,0.522303
1726.0,0.523572
1734.0,0.523866
1742.0,0.526914
1750.0,0.525458
1758.0,0.52379
1766.0,0.52725
1774.0,0.525624
1782.0,0.526411
1790.0,0.526128
1798.0,0.525755
1806.0,0.50156
1814.0,0.543984
1822.0,0.482353
1830.0,0.632435
1838.0,0.0
1846.0,0.152703
1854.0,0.546592
1862.0,1.0
1870.0,0.551495
1878.0,1.0
1886.0,0.375223
1894.0,0.387038
1902.0,0.342314
1910.0,0.739455
1918.0,0.673768
1926.0,0.487259
1934.0,0.511204
1942.0,0.528725
1950.0,0.492376
1958.0,0.49378
1966.0,0.501106
1974.0,0.500017
1982.0,0.502882
1990.0,0.496276
1998.0,0.508243
2006.0,0.509043
2014.0,0.500474
2022.0,0.494551
2030.0,0.501292
2038.0,0.50015
2046.0,0.50856
2054.0,0.510357
2062.0,0.505075
2070.0,0.508662
2078.0,0.502629
2086.0,0.502965
2094.0,0.512413
2102.0,0.509268
2110.0,0.510854
2118.0,0.509952
2126.0,0.508964
2134.0,0.508508
2142.0,0.509114
2150.0,0.509217
2158.0,0.508665
2166.0,0.510561
2174.0,0.504094
2182.0,0.513746
2190.0,0.503373
2198.0,0.502948
2206.0,0.503352
2214.0,0.505729
2222.0,0.50919
2230.0,0.505863
2238.0,0.503762
2246.0,0.510983
2254.0,0.499514
2262.0,0.512133
2270.0,0.510762
2278.0,0.505426
2286.0,0.505971
2294.0,0.511313
2302.0,0.497239
2310.0,0.508936
2318.0,0.509403
2326.0,0.503041
2334.0,0.505586
2342.0,0.515839
2350.0,0.493454
2358.0,0.514507
2366.0,0.508742
2374.0,0.49627
2382.0,0.499099
2390.0,0.509487
2398.0,0.511197
2406.0,0.505691
2414.0,0.460366
2422.0,0.526861
2430.0,0.523175
2438.0,0.491237
2446.0,0.610199
2454.0,0.458372
2462.0,0.488067
2470.0,0.530453
2478.0,0.595928
2486.0,0.582069
2494.0,0.363081
2500.0,0.568577