File: data/spectra_ascii/AsphaltNassPfuetzen___corthum00440.txt
Wavelength (nm),Reflectance
350.0,0.0244329
358.0,0.0235995
366.0,0.0230912
374.0,0.022939
382.0,0.0229076
390.0,0.0226321
398.0,0.0230477
406.0,0.0230023
414.0,0.0232082
422.0,0.0234708
430.0,0.0238459
438.0,0.0242878
446.0,0.0247494
454.0,0.0251506
462.0,0.0255831
470.0,0.0260241
478.0,0.0264186
486.0,0.0269923
494.0,0.0275286
502.0,0.0281895
510.0,0.028822
518.0,0.0295054
526.0,0.030203
534.0,0.0310407
542.0,0.0320305
550.0,0.0330681
558.0,0.0343148
566.0,0.0355087
574.0,0.0366567
582.0,0.0376237
590.0,0.0387477
598.0,0.0395362
606.0,0.0403001
614.0,0.0411123
622.0,0.0418684
630.0,0.0427908
638.0,0.043424
646.0,0.04415
654.0,0.0449058
662.0,0.0456646
670.0,0.0463301
678.0,0.0470793
686.0,0.0478902
694.0,0.0486809
702.0,0.049217
710.0,0.049855
718.0,0.051169
726.0,0.0517534
734.0,0.0521285
742.0,0.052729
750.0,0.0534705
758.0,0.0542117
766.0,0.0554387
774.0,0.0554621
782.0,0.0560864
790.0,0.0567239
798.0,0.0572536
806.0,0.0577763
814.0,0.0586543
822.0,0.0589665
830.0,0.0591127
838.0,0.0593268
846.0,0.0594512
854.0,0.0598193
862.0,0.0599313
870.0,0.0602382
878.0,0.0604868
886.0,0.060814
894.0,0.0611232
902.0,0.0614023
910.0,0.0614196
918.0,0.0617762
926.0,0.0616482
934.0,0.0614266
942.0,0.0607765
950.0,0.0595559
958.0,0.0584876
966.0,0.0584211
974.0,0.0575399
982.0,0.0579757
990.0,0.0579829
998.0,0.0584542
1006.0,0.0609866
1014.0,0.0619134
1022.0,0.0626984
1030.0,0.0630957
1038.0,0.0637332
1046.0,0.0641949
1054.0,0.0645914
1062.0,0.0651777
1070.0,0.0658856
1078.0,0.0661338
1086.0,0.066245
1094.0,0.0657979
1102.0,0.0658393
1110.0,0.0659836
1118.0,0.0664399
1126.0,0.0666345
1134.0,0.0648802
1142.0,0.0617477
1150.0,0.0583562
1158.0,0.0555568
1166.0,0.0543343
1174.0,0.0542327
1182.0,0.053866
1190.0,0.0537504
1198.0,0.053692
1206.0,0.0537816
1214.0,0.053909
1222.0,0.0544366
1230.0,0.0546169
1238.0,0.0551294
1246.0,0.0554035
1254.0,0.0560231
1262.0,0.0567715
1270.0,0.0564682
1278.0,0.0565792
1286.0,0.0559886
1294.0,0.0549962
1302.0,0.0543919
1310.0,0.0532614
1318.0,0.0514058
1326.0,0.0493346
1334.0,0.0471969
1342.0,0.0455614
1350.0,0.0453748
1358.0,0.0588345
1366.0,0.0631352
1374.0,0.00740904
1382.0,0.0580514
1390.0,0.0250711
1398.0,0.0378693
1406.0,0.0143087
1414.0,0.021002
1422.0,0.0180982
1430.0,0.013962
1438.0,0.0131938
1446.0,0.0141571
1454.0,0.0115168
1462.0,0.0116247
1470.0,0.0120677
1478.0,0.0113217
1486.0,0.0117572
1494.0,0.0115968
1502.0,0.011995
1510.0,0.0124724
1518.0,0.0127692
1526.0,0.0139536
1534.0,0.0152242
1542.0,0.0161867
1550.0,0.0172853
1558.0,0.018814
1566.0,0.0197206
1574.0,0.0211279
1582.0,0.0221817
1590.0,0.0230421
1598.0,0.0244163
1606.0,0.0253363
1614.0,0.025929
1622.0,0.0267239
1630.0,0.0266737
1638.0,0.02776
1646.0,0.0281714
1654.0,0.0288736
1662.0,0.0292295
1670.0,0.0292431
1678.0,0.0292189
1686.0,0.0294414
1694.0,0.029634
1702.0,0.0292444
1710.0,0.0290893
1718.0,0.0289356
1726.0,0.0284199
1734.0,0.0267014
1742.0,0.0271738
1750.0,0.0250267
1758.0,0.024771
1766.0,0.0232843
1774.0,0.0237868
1782.0,0.0225367
1790.0,0.0218861
1798.0,0.0226495
1806.0,0.039015
1814.0,0.0478173
1822.0,0.0847252
1830.0,0.0772176
1838.0,0.0
1846.0,0.0
1854.0,0.0
1862.0,0.461409
1870.0,0.0727606
1878.0,0.0
1886.0,0.10456
1894.0,0.0128611
1902.0,1.0
1910.0,0.137836
1918.0,0.0
1926.0,0.0195285
1934.0,0.0591324
1942.0,0.011652
1950.0,0.0138046
1958.0,0.0127073
1966.0,0.0129221
1974.0,0.00576395
1982.0,0.00719607
1990.0,0.00753744
1998.0,0.00446778
2006.0,0.0115664
2014.0,0.0164171
2022.0,0.00454932
2030.0,0.0105312
2038.0,0.00379682
2046.0,0.00603077
2054.0,0.00811925
2062.0,0.00841268
2070.0,0.0089193
2078.0,0.00870037
2086.0,0.00779215
2094.0,0.00822771
2102.0,0.0100202
2110.0,0.00973914
2118.0,0.0109071
2126.0,0.0117197
2134.0,0.0105121
2142.0,0.011429
2150.0,0.010957
2158.0,0.0108706
2166.0,0.0123047
2174.0,0.0148053
2182.0,0.0102033
2190.0,0.0144465
2198.0,0.0132485
2206.0,0.0103352
2214.0,0.0127149
2222.0,0.012195
2230.0,0.0130347
2238.0,0.0125187
2246.0,0.0125308
2254.0,0.0094423
2262.0,0.00959757
2270.0,0.0100092
2278.0,0.0129185
2286.0,0.0147961
2294.0,0.00981179
2302.0,0.00868804
2310.0,0.00652517
2318.0,0.00841387
2326.0,0.00807179
2334.0,0.0078839
2342.0,0.00968852
2350.0,0.00126126
2358.0,0.00482173
2366.0,0.00164634
2374.0,0.00955345
2382.0,0.00841357
2390.0,0.00703819
2398.0,0.0136981
2406.0,0.0098881
2414.0,0.0158787
2422.0,0.025232
2430.0,0.0227235
2438.0,3.41234e-05
2446.0,0.0
2454.0,0.0
2462.0,0.00264185
2470.0,0.0127744
2478.0,0.0
2486.0,0.0
2494.0,0.0
2500.0,0.212872