File: data/spectra_ascii/AsphaltTrockenVerschmutzung2___corthum00449.txt
Wavelength (nm),Reflectance
350.0,0.0791437
358.0,0.0809736
366.0,0.0826724
374.0,0.0852454
382.0,0.0884301
390.0,0.0908145
398.0,0.0937802
406.0,0.0957917
414.0,0.0982288
422.0,0.100739
430.0,0.103681
438.0,0.106648
446.0,0.109337
454.0,0.111783
462.0,0.113864
470.0,0.115946
478.0,0.117987
486.0,0.120418
494.0,0.123025
502.0,0.12581
510.0,0.128606
518.0,0.131567
526.0,0.134577
534.0,0.138093
542.0,0.142173
550.0,0.14652
558.0,0.151544
566.0,0.156443
574.0,0.161063
582.0,0.165279
590.0,0.169116
598.0,0.17234
606.0,0.17528
614.0,0.177962
622.0,0.180495
630.0,0.182919
638.0,0.185253
646.0,0.187544
654.0,0.189612
662.0,0.191627
670.0,0.193448
678.0,0.195259
686.0,0.197029
694.0,0.198775
702.0,0.200261
710.0,0.201755
718.0,0.20368
726.0,0.205283
734.0,0.20678
742.0,0.208529
750.0,0.210285
758.0,0.212223
766.0,0.214312
774.0,0.21547
782.0,0.217146
790.0,0.218689
798.0,0.220124
806.0,0.221514
814.0,0.223093
822.0,0.22432
830.0,0.225411
838.0,0.22646
846.0,0.227583
854.0,0.228594
862.0,0.229542
870.0,0.230356
878.0,0.231284
886.0,0.232478
894.0,0.233522
902.0,0.234488
910.0,0.235572
918.0,0.236358
926.0,0.237266
934.0,0.235943
942.0,0.237442
950.0,0.238345
958.0,0.2385
966.0,0.240305
974.0,0.240496
982.0,0.241718
990.0,0.241913
998.0,0.241984
1006.0,0.246885
1014.0,0.247281
1022.0,0.247822
1030.0,0.248195
1038.0,0.248573
1046.0,0.248983
1054.0,0.249607
1062.0,0.249627
1070.0,0.250087
1078.0,0.250566
1086.0,0.250527
1094.0,0.25134
1102.0,0.251718
1110.0,0.252051
1118.0,0.253284
1126.0,0.254301
1134.0,0.252682
1142.0,0.253856
1150.0,0.25424
1158.0,0.254674
1166.0,0.254873
1174.0,0.255441
1182.0,0.25585
1190.0,0.256376
1198.0,0.256846
1206.0,0.256898
1214.0,0.257053
1222.0,0.257057
1230.0,0.257332
1238.0,0.256991
1246.0,0.257158
1254.0,0.257669
1262.0,0.257732
1270.0,0.257836
1278.0,0.257592
1286.0,0.257984
1294.0,0.258272
1302.0,0.258012
1310.0,0.258902
1318.0,0.258767
1326.0,0.259568
1334.0,0.259819
1342.0,0.261484
1350.0,0.261957
1358.0,0.271106
1366.0,0.462277
1374.0,0.456387
1382.0,0.400404
1390.0,0.318211
1398.0,0.252643
1406.0,0.258733
1414.0,0.259267
1422.0,0.258131
1430.0,0.26263
1438.0,0.262991
1446.0,0.262272
1454.0,0.263604
1462.0,0.263959
1470.0,0.262737
1478.0,0.264436
1486.0,0.264511
1494.0,0.265038
1502.0,0.264682
1510.0,0.265157
1518.0,0.265181
1526.0,0.265474
1534.0,0.265572
1542.0,0.265407
1550.0,0.264928
1558.0,0.265218
1566.0,0.265504
1574.0,0.265335
1582.0,0.265337
1590.0,0.264994
1598.0,0.264868
1606.0,0.264199
1614.0,0.263233
1622.0,0.262992
1630.0,0.263853
1638.0,0.262394
1646.0,0.262135
1654.0,0.261712
1662.0,0.261409
1670.0,0.262213
1678.0,0.262131
1686.0,0.263003
1694.0,0.262245
1702.0,0.263076
1710.0,0.262528
1718.0,0.261855
1726.0,0.262946
1734.0,0.262571
1742.0,0.263724
1750.0,0.263156
1758.0,0.261867
1766.0,0.263428
1774.0,0.26195
1782.0,0.262276
1790.0,0.263439
1798.0,0.260116
1806.0,0.263657
1814.0,0.296307
1822.0,0.284296
1830.0,0.348655
1838.0,0.0
1846.0,0.56096
1854.0,0.214505
1862.0,1.0
1870.0,0.569074
1878.0,1.0
1886.0,0.244926
1894.0,0.235525
1902.0,0.0851162
1910.0,0.963948
1918.0,0.274641
1926.0,0.218408
1934.0,0.235542
1942.0,0.271733
1950.0,0.234348
1958.0,0.251124
1966.0,0.253749
1974.0,0.253767
1982.0,0.258044
1990.0,0.254099
1998.0,0.260347
2006.0,0.259125
2014.0,0.265628
2022.0,0.252292
2030.0,0.261067
2038.0,0.259004
2046.0,0.266034
2054.0,0.267604
2062.0,0.266463
2070.0,0.270236
2078.0,0.265155
2086.0,0.263983
2094.0,0.266342
2102.0,0.265396
2110.0,0.267305
2118.0,0.26915
2126.0,0.268491
2134.0,0.266819
2142.0,0.264881
2150.0,0.267684
2158.0,0.263042
2166.0,0.264657
2174.0,0.258365
2182.0,0.261823
2190.0,0.255952
2198.0,0.254804
2206.0,0.253474
2214.0,0.252703
2222.0,0.254869
2230.0,0.254558
2238.0,0.252717
2246.0,0.255525
2254.0,0.247672
2262.0,0.256351
2270.0,0.255978
2278.0,0.251346
2286.0,0.24949
2294.0,0.252215
2302.0,0.245927
2310.0,0.251413
2318.0,0.248732
2326.0,0.246749
2334.0,0.241239
2342.0,0.252731
2350.0,0.243829
2358.0,0.254407
2366.0,0.247821
2374.0,0.246669
2382.0,0.253321
2390.0,0.242561
2398.0,0.249639
2406.0,0.247483
2414.0,0.226809
2422.0,0.264916
2430.0,0.249818
2438.0,0.241699
2446.0,0.324165
2454.0,0.254924
2462.0,0.248626
2470.0,0.256923
2478.0,0.271573
2486.0,0.353807
2494.0,0.335272
2500.0,0.377097