File: data/spectra_ascii/AsphaltTrockenVerschmutzung1___corthum00399.txt
Wavelength (nm),Reflectance
350.0,0.0582415
358.0,0.0588875
366.0,0.0608029
374.0,0.0627596
382.0,0.0646501
390.0,0.0672754
398.0,0.0689655
406.0,0.0706436
414.0,0.0726754
422.0,0.074677
430.0,0.0766999
438.0,0.0787416
446.0,0.0807287
454.0,0.0827338
462.0,0.0844811
470.0,0.0862406
478.0,0.0880369
486.0,0.0900675
494.0,0.0923447
502.0,0.0947518
510.0,0.097135
518.0,0.0998783
526.0,0.102722
534.0,0.105965
542.0,0.109617
550.0,0.113591
558.0,0.117978
566.0,0.122295
574.0,0.1265
582.0,0.130462
590.0,0.134355
598.0,0.137684
606.0,0.14102
614.0,0.144389
622.0,0.147593
630.0,0.150978
638.0,0.154162
646.0,0.157325
654.0,0.160533
662.0,0.163725
670.0,0.166776
678.0,0.169853
686.0,0.172963
694.0,0.176031
702.0,0.179098
710.0,0.182224
718.0,0.185459
726.0,0.188686
734.0,0.191983
742.0,0.195394
750.0,0.19889
758.0,0.202531
766.0,0.206287
774.0,0.209602
782.0,0.213106
790.0,0.216689
798.0,0.220174
806.0,0.223634
814.0,0.227199
822.0,0.230592
830.0,0.233972
838.0,0.237316
846.0,0.24046
854.0,0.24366
862.0,0.246738
870.0,0.249708
878.0,0.252725
886.0,0.255894
894.0,0.258487
902.0,0.26148
910.0,0.264015
918.0,0.267012
926.0,0.269409
934.0,0.268715
942.0,0.272753
950.0,0.274329
958.0,0.277883
966.0,0.281276
974.0,0.282949
982.0,0.285891
990.0,0.28727
998.0,0.28859
1006.0,0.296707
1014.0,0.297981
1022.0,0.299035
1030.0,0.300693
1038.0,0.301748
1046.0,0.303263
1054.0,0.304854
1062.0,0.306614
1070.0,0.308416
1078.0,0.309311
1086.0,0.31052
1094.0,0.311804
1102.0,0.312769
1110.0,0.313397
1118.0,0.314797
1126.0,0.31564
1134.0,0.315321
1142.0,0.31923
1150.0,0.319475
1158.0,0.321534
1166.0,0.322146
1174.0,0.323731
1182.0,0.324744
1190.0,0.325281
1198.0,0.326437
1206.0,0.326872
1214.0,0.328223
1222.0,0.328101
1230.0,0.329241
1238.0,0.329617
1246.0,0.32992
1254.0,0.330849
1262.0,0.330806
1270.0,0.331457
1278.0,0.332743
1286.0,0.332872
1294.0,0.333881
1302.0,0.334925
1310.0,0.335094
1318.0,0.336392
1326.0,0.336016
1334.0,0.336441
1342.0,0.33756
1350.0,0.334682
1358.0,0.371672
1366.0,0.341702
1374.0,0.422867
1382.0,0.280314
1390.0,0.335958
1398.0,0.318179
1406.0,0.322624
1414.0,0.329012
1422.0,0.327757
1430.0,0.328129
1438.0,0.328994
1446.0,0.327278
1454.0,0.327136
1462.0,0.327632
1470.0,0.328438
1478.0,0.329565
1486.0,0.332328
1494.0,0.332741
1502.0,0.333084
1510.0,0.334697
1518.0,0.335
1526.0,0.336156
1534.0,0.336801
1542.0,0.337466
1550.0,0.337626
1558.0,0.337629
1566.0,0.338035
1574.0,0.338131
1582.0,0.339745
1590.0,0.339835
1598.0,0.339821
1606.0,0.339915
1614.0,0.340408
1622.0,0.340767
1630.0,0.340364
1638.0,0.340301
1646.0,0.339773
1654.0,0.340343
1662.0,0.339745
1670.0,0.338352
1678.0,0.339845
1686.0,0.340986
1694.0,0.341064
1702.0,0.340815
1710.0,0.34093
1718.0,0.340665
1726.0,0.340514
1734.0,0.340973
1742.0,0.34113
1750.0,0.340449
1758.0,0.340125
1766.0,0.34063
1774.0,0.340341
1782.0,0.33898
1790.0,0.339568
1798.0,0.338673
1806.0,0.348626
1814.0,0.343078
1822.0,0.349131
1830.0,0.308049
1838.0,0.905798
1846.0,0.0
1854.0,0.0994638
1862.0,0.481367
1870.0,0.748471
1878.0,0.600437
1886.0,0.327956
1894.0,0.52881
1902.0,0.587189
1910.0,0.271516
1918.0,0.220591
1926.0,0.268924
1934.0,0.303376
1942.0,0.286385
1950.0,0.30571
1958.0,0.316273
1966.0,0.314125
1974.0,0.312136
1982.0,0.309268
1990.0,0.312554
1998.0,0.313283
2006.0,0.319807
2014.0,0.320081
2022.0,0.320979
2030.0,0.323028
2038.0,0.324219
2046.0,0.324667
2054.0,0.321042
2062.0,0.320876
2070.0,0.32461
2078.0,0.324343
2086.0,0.326486
2094.0,0.32388
2102.0,0.325591
2110.0,0.327619
2118.0,0.322644
2126.0,0.329751
2134.0,0.326595
2142.0,0.327521
2150.0,0.325279
2158.0,0.324816
2166.0,0.324718
2174.0,0.323111
2182.0,0.323861
2190.0,0.322016
2198.0,0.321979
2206.0,0.320462
2214.0,0.318272
2222.0,0.3205
2230.0,0.319232
2238.0,0.31689
2246.0,0.316832
2254.0,0.310221
2262.0,0.315369
2270.0,0.30924
2278.0,0.306088
2286.0,0.309839
2294.0,0.308783
2302.0,0.304654
2310.0,0.311608
2318.0,0.299419
2326.0,0.303111
2334.0,0.305487
2342.0,0.303376
2350.0,0.288645
2358.0,0.304737
2366.0,0.305538
2374.0,0.311093
2382.0,0.311656
2390.0,0.292879
2398.0,0.302432
2406.0,0.296889
2414.0,0.315872
2422.0,0.304266
2430.0,0.322631
2438.0,0.282301
2446.0,0.312027
2454.0,0.268982
2462.0,0.268836
2470.0,0.273162
2478.0,0.331114
2486.0,0.566961
2494.0,0.308227
2500.0,0.286164