File: data/spectra_ascii/AsphaltTrockenVerschmutzung2___corthum00453.txt
Wavelength (nm),Reflectance
350.0,0.0752681
358.0,0.0774667
366.0,0.0794328
374.0,0.0818209
382.0,0.0850561
390.0,0.0873845
398.0,0.0906948
406.0,0.0926829
414.0,0.0952331
422.0,0.0978962
430.0,0.100876
438.0,0.103887
446.0,0.106789
454.0,0.109312
462.0,0.111593
470.0,0.113837
478.0,0.11603
486.0,0.118549
494.0,0.12134
502.0,0.124145
510.0,0.127122
518.0,0.130072
526.0,0.13325
534.0,0.1369
542.0,0.141019
550.0,0.145491
558.0,0.1506
566.0,0.155514
574.0,0.160276
582.0,0.1646
590.0,0.168595
598.0,0.172012
606.0,0.175219
614.0,0.178157
622.0,0.180947
630.0,0.183619
638.0,0.186241
646.0,0.188684
654.0,0.190942
662.0,0.193208
670.0,0.195086
678.0,0.196968
686.0,0.198691
694.0,0.200374
702.0,0.201797
710.0,0.203203
718.0,0.204657
726.0,0.206092
734.0,0.207646
742.0,0.209337
750.0,0.210982
758.0,0.212909
766.0,0.214729
774.0,0.216185
782.0,0.217875
790.0,0.219455
798.0,0.220987
806.0,0.222428
814.0,0.223886
822.0,0.225304
830.0,0.226438
838.0,0.227603
846.0,0.228762
854.0,0.229931
862.0,0.230968
870.0,0.2318
878.0,0.232759
886.0,0.233855
894.0,0.234816
902.0,0.235772
910.0,0.236619
918.0,0.237389
926.0,0.238222
934.0,0.236452
942.0,0.237271
950.0,0.23839
958.0,0.238814
966.0,0.241281
974.0,0.241504
982.0,0.242522
990.0,0.243319
998.0,0.244404
1006.0,0.247331
1014.0,0.248152
1022.0,0.248558
1030.0,0.249515
1038.0,0.249381
1046.0,0.249764
1054.0,0.250818
1062.0,0.250932
1070.0,0.250532
1078.0,0.251108
1086.0,0.251627
1094.0,0.251695
1102.0,0.252117
1110.0,0.252609
1118.0,0.252185
1126.0,0.251514
1134.0,0.251905
1142.0,0.253814
1150.0,0.253622
1158.0,0.255087
1166.0,0.255447
1174.0,0.256232
1182.0,0.256647
1190.0,0.257255
1198.0,0.257962
1206.0,0.257842
1214.0,0.258259
1222.0,0.258202
1230.0,0.25846
1238.0,0.257917
1246.0,0.258095
1254.0,0.258581
1262.0,0.258623
1270.0,0.258061
1278.0,0.258243
1286.0,0.258484
1294.0,0.258616
1302.0,0.258659
1310.0,0.258879
1318.0,0.258723
1326.0,0.259468
1334.0,0.259076
1342.0,0.2608
1350.0,0.259856
1358.0,0.257032
1366.0,0.161137
1374.0,0.473705
1382.0,0.316086
1390.0,0.288353
1398.0,0.258308
1406.0,0.251173
1414.0,0.256576
1422.0,0.256978
1430.0,0.26025
1438.0,0.258625
1446.0,0.261012
1454.0,0.262847
1462.0,0.264981
1470.0,0.263813
1478.0,0.265912
1486.0,0.266263
1494.0,0.267817
1502.0,0.268268
1510.0,0.268338
1518.0,0.268473
1526.0,0.268683
1534.0,0.268583
1542.0,0.268371
1550.0,0.268391
1558.0,0.268487
1566.0,0.268103
1574.0,0.26798
1582.0,0.267265
1590.0,0.267193
1598.0,0.267423
1606.0,0.26653
1614.0,0.265509
1622.0,0.265486
1630.0,0.265911
1638.0,0.265151
1646.0,0.264706
1654.0,0.265368
1662.0,0.264898
1670.0,0.265691
1678.0,0.265226
1686.0,0.265582
1694.0,0.26627
1702.0,0.265878
1710.0,0.266108
1718.0,0.264846
1726.0,0.265409
1734.0,0.265262
1742.0,0.266631
1750.0,0.265787
1758.0,0.264615
1766.0,0.265096
1774.0,0.265135
1782.0,0.264215
1790.0,0.264239
1798.0,0.262397
1806.0,0.265382
1814.0,0.288454
1822.0,0.226279
1830.0,0.359113
1838.0,0.0
1846.0,0.399264
1854.0,0.335819
1862.0,1.0
1870.0,0.709787
1878.0,1.0
1886.0,0.195495
1894.0,0.23814
1902.0,0.32374
1910.0,0.800608
1918.0,0.398601
1926.0,0.309348
1934.0,0.265674
1942.0,0.273214
1950.0,0.257189
1958.0,0.270147
1966.0,0.260855
1974.0,0.264852
1982.0,0.263113
1990.0,0.260939
1998.0,0.269349
2006.0,0.280952
2014.0,0.267488
2022.0,0.268314
2030.0,0.265728
2038.0,0.264679
2046.0,0.271846
2054.0,0.270232
2062.0,0.268071
2070.0,0.275967
2078.0,0.269968
2086.0,0.271322
2094.0,0.274572
2102.0,0.272913
2110.0,0.274587
2118.0,0.272356
2126.0,0.271893
2134.0,0.271587
2142.0,0.272663
2150.0,0.271353
2158.0,0.266757
2166.0,0.269697
2174.0,0.263327
2182.0,0.266448
2190.0,0.262231
2198.0,0.257392
2206.0,0.257692
2214.0,0.257318
2222.0,0.262177
2230.0,0.254468
2238.0,0.256691
2246.0,0.260404
2254.0,0.253836
2262.0,0.262892
2270.0,0.262907
2278.0,0.260086
2286.0,0.25887
2294.0,0.259099
2302.0,0.252726
2310.0,0.257383
2318.0,0.255214
2326.0,0.250591
2334.0,0.251489
2342.0,0.26408
2350.0,0.255206
2358.0,0.264969
2366.0,0.256795
2374.0,0.257926
2382.0,0.257681
2390.0,0.244415
2398.0,0.263126
2406.0,0.268194
2414.0,0.237133
2422.0,0.25944
2430.0,0.261273
2438.0,0.247207
2446.0,0.330643
2454.0,0.239802
2462.0,0.27199
2470.0,0.259878
2478.0,0.365055
2486.0,0.240466
2494.0,0.314336
2500.0,0.424687