File: data/spectra_ascii/AsphaltNassPfuetzen___corthum00442.txt
Wavelength (nm),Reflectance
350.0,0.0256164
358.0,0.0249871
366.0,0.0247111
374.0,0.0245433
382.0,0.0245623
390.0,0.0242609
398.0,0.024613
406.0,0.0243414
414.0,0.0244543
422.0,0.0247235
430.0,0.0249915
438.0,0.0254662
446.0,0.0258077
454.0,0.0261834
462.0,0.0265298
470.0,0.0269149
478.0,0.0272375
486.0,0.0277242
494.0,0.0281516
502.0,0.0288005
510.0,0.02937
518.0,0.0299792
526.0,0.0306439
534.0,0.0314972
542.0,0.0324444
550.0,0.0335428
558.0,0.0348175
566.0,0.036035
574.0,0.0372591
582.0,0.0382728
590.0,0.0393698
598.0,0.0401949
606.0,0.0410435
614.0,0.0418298
622.0,0.0424808
630.0,0.0434289
638.0,0.0440422
646.0,0.0447605
654.0,0.0454875
662.0,0.0462261
670.0,0.0468832
678.0,0.0475628
686.0,0.0484315
694.0,0.0491854
702.0,0.0497531
710.0,0.0504275
718.0,0.0517293
726.0,0.0523136
734.0,0.0527474
742.0,0.0533946
750.0,0.054092
758.0,0.0548982
766.0,0.0561226
774.0,0.0561549
782.0,0.0568294
790.0,0.0574383
798.0,0.0579612
806.0,0.0584751
814.0,0.059407
822.0,0.0596525
830.0,0.0599144
838.0,0.0601241
846.0,0.0603669
854.0,0.0606514
862.0,0.0608887
870.0,0.0612386
878.0,0.0614445
886.0,0.0618564
894.0,0.0622796
902.0,0.0622925
910.0,0.0624781
918.0,0.063009
926.0,0.0626432
934.0,0.0638933
942.0,0.0627686
950.0,0.0613303
958.0,0.0616205
966.0,0.0610437
974.0,0.0611642
982.0,0.0608109
990.0,0.0616042
998.0,0.0616269
1006.0,0.065075
1014.0,0.0655038
1022.0,0.0659655
1030.0,0.0667402
1038.0,0.0671979
1046.0,0.0669233
1054.0,0.0676469
1062.0,0.0683292
1070.0,0.0688455
1078.0,0.0690007
1086.0,0.0691856
1094.0,0.0688421
1102.0,0.0696447
1110.0,0.0690878
1118.0,0.0705247
1126.0,0.0714342
1134.0,0.0689347
1142.0,0.0677924
1150.0,0.065124
1158.0,0.063018
1166.0,0.0623572
1174.0,0.0620403
1182.0,0.0616647
1190.0,0.0614446
1198.0,0.0617427
1206.0,0.0619169
1214.0,0.0623265
1222.0,0.0623927
1230.0,0.062542
1238.0,0.0628072
1246.0,0.0630431
1254.0,0.0636289
1262.0,0.0644122
1270.0,0.0647631
1278.0,0.0643162
1286.0,0.0638256
1294.0,0.0637255
1302.0,0.0628211
1310.0,0.0621462
1318.0,0.0607268
1326.0,0.0593985
1334.0,0.0578571
1342.0,0.0566939
1350.0,0.0574392
1358.0,0.0707898
1366.0,0.18752
1374.0,0.102643
1382.0,0.0980648
1390.0,0.0548661
1398.0,0.0409672
1406.0,0.0506369
1414.0,0.0331898
1422.0,0.0261149
1430.0,0.0232791
1438.0,0.0221019
1446.0,0.0204492
1454.0,0.0186437
1462.0,0.018237
1470.0,0.0191902
1478.0,0.0190158
1486.0,0.0193343
1494.0,0.0195294
1502.0,0.0205734
1510.0,0.0220782
1518.0,0.0231713
1526.0,0.0246687
1534.0,0.0263475
1542.0,0.027665
1550.0,0.0294247
1558.0,0.0309551
1566.0,0.0329227
1574.0,0.0343204
1582.0,0.0357127
1590.0,0.0370945
1598.0,0.0380206
1606.0,0.0392044
1614.0,0.0398612
1622.0,0.0409327
1630.0,0.0411187
1638.0,0.0421899
1646.0,0.0422343
1654.0,0.0431308
1662.0,0.043359
1670.0,0.0436223
1678.0,0.0437554
1686.0,0.0441566
1694.0,0.0442244
1702.0,0.0441025
1710.0,0.0443233
1718.0,0.0444125
1726.0,0.0432272
1734.0,0.0426848
1742.0,0.0417825
1750.0,0.0404641
1758.0,0.0399777
1766.0,0.0392092
1774.0,0.0400336
1782.0,0.0390897
1790.0,0.0384082
1798.0,0.0396489
1806.0,0.0466219
1814.0,0.0731465
1822.0,0.0721485
1830.0,0.0240519
1838.0,0.0
1846.0,0.0
1854.0,0.104898
1862.0,0.842932
1870.0,0.978256
1878.0,0.318758
1886.0,0.123489
1894.0,0.0734623
1902.0,0.0
1910.0,0.352974
1918.0,0.02672
1926.0,0.042703
1934.0,0.0111464
1942.0,0.0
1950.0,0.0156568
1958.0,0.0238762
1966.0,0.0101847
1974.0,0.00988894
1982.0,0.0101883
1990.0,0.00745966
1998.0,0.00650787
2006.0,0.0214746
2014.0,0.0167873
2022.0,0.0100704
2030.0,0.0117623
2038.0,0.0120166
2046.0,0.0138499
2054.0,0.0173088
2062.0,0.0126772
2070.0,0.015691
2078.0,0.0157218
2086.0,0.0159113
2094.0,0.0180022
2102.0,0.0179202
2110.0,0.0187249
2118.0,0.0191887
2126.0,0.0210487
2134.0,0.0225723
2142.0,0.0225905
2150.0,0.0235426
2158.0,0.0240445
2166.0,0.0250983
2174.0,0.0231775
2182.0,0.0223848
2190.0,0.0217588
2198.0,0.023756
2206.0,0.022783
2214.0,0.0261307
2222.0,0.024907
2230.0,0.024488
2238.0,0.023805
2246.0,0.025482
2254.0,0.0232592
2262.0,0.0220928
2270.0,0.023802
2278.0,0.023957
2286.0,0.0182081
2294.0,0.0200046
2302.0,0.0178071
2310.0,0.020405
2318.0,0.0178096
2326.0,0.0201329
2334.0,0.0191007
2342.0,0.0195075
2350.0,0.0121269
2358.0,0.0144074
2366.0,0.0112938
2374.0,0.0120472
2382.0,0.015048
2390.0,0.00337299
2398.0,0.00938053
2406.0,0.0158482
2414.0,0.00910742
2422.0,0.00430345
2430.0,0.0181024
2438.0,0.00397242
2446.0,0.0152983
2454.0,0.000243033
2462.0,0.0
2470.0,0.0
2478.0,0.00283168
2486.0,0.107838
2494.0,0.368205
2500.0,0.0341051