File: data/spectra_ascii/AsphaltTrockenVerschmutzung1___corthum00395.txt
Wavelength (nm),Reflectance
350.0,0.07727
358.0,0.0788575
366.0,0.0810706
374.0,0.0837835
382.0,0.0867325
390.0,0.0898429
398.0,0.0923573
406.0,0.0946938
414.0,0.097203
422.0,0.0998357
430.0,0.102747
438.0,0.105786
446.0,0.108513
454.0,0.111052
462.0,0.113233
470.0,0.115252
478.0,0.117414
486.0,0.120025
494.0,0.122895
502.0,0.125912
510.0,0.129003
518.0,0.132379
526.0,0.13582
534.0,0.139826
542.0,0.144339
550.0,0.149395
558.0,0.155116
566.0,0.160647
574.0,0.166093
582.0,0.171127
590.0,0.175555
598.0,0.179209
606.0,0.182509
614.0,0.185616
622.0,0.188471
630.0,0.191394
638.0,0.194094
646.0,0.196722
654.0,0.199332
662.0,0.201893
670.0,0.204393
678.0,0.206774
686.0,0.209141
694.0,0.211453
702.0,0.21369
710.0,0.21589
718.0,0.218354
726.0,0.220747
734.0,0.223044
742.0,0.225445
750.0,0.228003
758.0,0.230661
766.0,0.233281
774.0,0.235403
782.0,0.237656
790.0,0.240006
798.0,0.242246
806.0,0.244299
814.0,0.246547
822.0,0.248541
830.0,0.250354
838.0,0.252231
846.0,0.253796
854.0,0.255651
862.0,0.257364
870.0,0.258768
878.0,0.260584
886.0,0.262227
894.0,0.263804
902.0,0.265565
910.0,0.267135
918.0,0.268664
926.0,0.270204
934.0,0.268926
942.0,0.272161
950.0,0.272363
958.0,0.27525
966.0,0.276834
974.0,0.277849
982.0,0.279818
990.0,0.280492
998.0,0.281484
1006.0,0.286822
1014.0,0.28779
1022.0,0.28797
1030.0,0.288747
1038.0,0.289429
1046.0,0.290065
1054.0,0.291
1062.0,0.291579
1070.0,0.292914
1078.0,0.293333
1086.0,0.293623
1094.0,0.295241
1102.0,0.294949
1110.0,0.295921
1118.0,0.296027
1126.0,0.29628
1134.0,0.29719
1142.0,0.299922
1150.0,0.299544
1158.0,0.301642
1166.0,0.301953
1174.0,0.303008
1182.0,0.303562
1190.0,0.304153
1198.0,0.304848
1206.0,0.305453
1214.0,0.306158
1222.0,0.30587
1230.0,0.306451
1238.0,0.306029
1246.0,0.306143
1254.0,0.30635
1262.0,0.306173
1270.0,0.306714
1278.0,0.307681
1286.0,0.307814
1294.0,0.308116
1302.0,0.30913
1310.0,0.308922
1318.0,0.309417
1326.0,0.309692
1334.0,0.310037
1342.0,0.3118
1350.0,0.309095
1358.0,0.357439
1366.0,0.427008
1374.0,0.367233
1382.0,0.296171
1390.0,0.286408
1398.0,0.304413
1406.0,0.3136
1414.0,0.308419
1422.0,0.309659
1430.0,0.312042
1438.0,0.313674
1446.0,0.314542
1454.0,0.314555
1462.0,0.314564
1470.0,0.315155
1478.0,0.316759
1486.0,0.318276
1494.0,0.318849
1502.0,0.318804
1510.0,0.319484
1518.0,0.319756
1526.0,0.320174
1534.0,0.320266
1542.0,0.320706
1550.0,0.320153
1558.0,0.31985
1566.0,0.31985
1574.0,0.31964
1582.0,0.32072
1590.0,0.320752
1598.0,0.320274
1606.0,0.320265
1614.0,0.319575
1622.0,0.319303
1630.0,0.31862
1638.0,0.318377
1646.0,0.318187
1654.0,0.317964
1662.0,0.317587
1670.0,0.317088
1678.0,0.318071
1686.0,0.31918
1694.0,0.319295
1702.0,0.319478
1710.0,0.319686
1718.0,0.319765
1726.0,0.319475
1734.0,0.320162
1742.0,0.318974
1750.0,0.318967
1758.0,0.319238
1766.0,0.319575
1774.0,0.319452
1782.0,0.318395
1790.0,0.319723
1798.0,0.319841
1806.0,0.327385
1814.0,0.318367
1822.0,0.320925
1830.0,0.405618
1838.0,0.454099
1846.0,0.0
1854.0,0.0357304
1862.0,0.5557
1870.0,0.775611
1878.0,0.65394
1886.0,0.286222
1894.0,0.434551
1902.0,0.143345
1910.0,0.223053
1918.0,0.318534
1926.0,0.299746
1934.0,0.287773
1942.0,0.304202
1950.0,0.300876
1958.0,0.306451
1966.0,0.312099
1974.0,0.307254
1982.0,0.308346
1990.0,0.308386
1998.0,0.306902
2006.0,0.325508
2014.0,0.320345
2022.0,0.316568
2030.0,0.317344
2038.0,0.316351
2046.0,0.318415
2054.0,0.317996
2062.0,0.319631
2070.0,0.322416
2078.0,0.324163
2086.0,0.324686
2094.0,0.320517
2102.0,0.323435
2110.0,0.324685
2118.0,0.32179
2126.0,0.325224
2134.0,0.32448
2142.0,0.321866
2150.0,0.322876
2158.0,0.322497
2166.0,0.319713
2174.0,0.315665
2182.0,0.315416
2190.0,0.311612
2198.0,0.313797
2206.0,0.30794
2214.0,0.306991
2222.0,0.309228
2230.0,0.308801
2238.0,0.307131
2246.0,0.310599
2254.0,0.306335
2262.0,0.308681
2270.0,0.306424
2278.0,0.30192
2286.0,0.305371
2294.0,0.3042
2302.0,0.298899
2310.0,0.3088
2318.0,0.300198
2326.0,0.30349
2334.0,0.305944
2342.0,0.305115
2350.0,0.295583
2358.0,0.310317
2366.0,0.308488
2374.0,0.323284
2382.0,0.305395
2390.0,0.300373
2398.0,0.313058
2406.0,0.288075
2414.0,0.31642
2422.0,0.278645
2430.0,0.288225
2438.0,0.279487
2446.0,0.324199
2454.0,0.260482
2462.0,0.256531
2470.0,0.265338
2478.0,0.342045
2486.0,0.243855
2494.0,0.213595
2500.0,0.26446