File: data/spectra_ascii/AsphaltTrockenVerschmutzung1___corthum00396.txt
Wavelength (nm),Reflectance
350.0,0.0681927
358.0,0.0700799
366.0,0.0721414
374.0,0.074426
382.0,0.0773337
390.0,0.080017
398.0,0.0822381
406.0,0.0845662
414.0,0.0867808
422.0,0.0893083
430.0,0.0918927
438.0,0.094581
446.0,0.0971637
454.0,0.0995113
462.0,0.10153
470.0,0.103437
478.0,0.105399
486.0,0.107728
494.0,0.110403
502.0,0.113134
510.0,0.115936
518.0,0.119026
526.0,0.12222
534.0,0.125928
542.0,0.130132
550.0,0.134791
558.0,0.140298
566.0,0.145594
574.0,0.150999
582.0,0.155784
590.0,0.160163
598.0,0.163767
606.0,0.167095
614.0,0.170194
622.0,0.173109
630.0,0.176004
638.0,0.178696
646.0,0.181383
654.0,0.184047
662.0,0.18661
670.0,0.189112
678.0,0.191584
686.0,0.193994
694.0,0.19643
702.0,0.198783
710.0,0.201036
718.0,0.203635
726.0,0.20605
734.0,0.208398
742.0,0.210853
750.0,0.213479
758.0,0.216217
766.0,0.218941
774.0,0.22105
782.0,0.223409
790.0,0.225804
798.0,0.228176
806.0,0.23036
814.0,0.232754
822.0,0.234925
830.0,0.236842
838.0,0.238772
846.0,0.240488
854.0,0.242451
862.0,0.244333
870.0,0.245995
878.0,0.247911
886.0,0.249716
894.0,0.251588
902.0,0.253288
910.0,0.255214
918.0,0.256976
926.0,0.258336
934.0,0.258115
942.0,0.260662
950.0,0.261663
958.0,0.263701
966.0,0.266344
974.0,0.267235
982.0,0.268833
990.0,0.269325
998.0,0.270783
1006.0,0.277015
1014.0,0.278533
1022.0,0.278641
1030.0,0.279537
1038.0,0.280428
1046.0,0.281112
1054.0,0.282166
1062.0,0.282831
1070.0,0.284162
1078.0,0.285261
1086.0,0.285397
1094.0,0.2871
1102.0,0.287501
1110.0,0.287893
1118.0,0.288963
1126.0,0.289199
1134.0,0.289816
1142.0,0.293021
1150.0,0.292892
1158.0,0.294405
1166.0,0.294953
1174.0,0.295704
1182.0,0.296615
1190.0,0.297058
1198.0,0.297733
1206.0,0.298299
1214.0,0.298976
1222.0,0.298667
1230.0,0.299648
1238.0,0.299766
1246.0,0.299773
1254.0,0.300074
1262.0,0.300085
1270.0,0.30092
1278.0,0.301493
1286.0,0.301794
1294.0,0.302129
1302.0,0.30312
1310.0,0.303615
1318.0,0.30431
1326.0,0.304356
1334.0,0.305011
1342.0,0.306343
1350.0,0.302415
1358.0,0.335409
1366.0,0.262901
1374.0,0.352478
1382.0,0.238436
1390.0,0.256854
1398.0,0.303284
1406.0,0.288382
1414.0,0.302087
1422.0,0.303557
1430.0,0.307771
1438.0,0.30829
1446.0,0.307304
1454.0,0.308553
1462.0,0.308176
1470.0,0.309642
1478.0,0.30993
1486.0,0.311773
1494.0,0.312019
1502.0,0.311935
1510.0,0.312365
1518.0,0.312793
1526.0,0.313511
1534.0,0.313722
1542.0,0.314287
1550.0,0.313424
1558.0,0.314141
1566.0,0.313585
1574.0,0.313618
1582.0,0.315001
1590.0,0.314509
1598.0,0.314132
1606.0,0.314927
1614.0,0.314365
1622.0,0.31392
1630.0,0.313566
1638.0,0.313653
1646.0,0.313056
1654.0,0.313717
1662.0,0.312934
1670.0,0.31244
1678.0,0.313035
1686.0,0.314486
1694.0,0.31551
1702.0,0.315311
1710.0,0.315178
1718.0,0.315473
1726.0,0.314685
1734.0,0.316651
1742.0,0.315381
1750.0,0.315113
1758.0,0.315317
1766.0,0.31488
1774.0,0.314573
1782.0,0.315041
1790.0,0.315892
1798.0,0.316388
1806.0,0.317235
1814.0,0.32387
1822.0,0.357025
1830.0,0.308859
1838.0,0.477395
1846.0,0.0
1854.0,0.238963
1862.0,0.390486
1870.0,0.622053
1878.0,0.426355
1886.0,0.190126
1894.0,0.486969
1902.0,0.275279
1910.0,0.299499
1918.0,0.309916
1926.0,0.283903
1934.0,0.304175
1942.0,0.293713
1950.0,0.294805
1958.0,0.293503
1966.0,0.306946
1974.0,0.302939
1982.0,0.302973
1990.0,0.305058
1998.0,0.306494
2006.0,0.314993
2014.0,0.314091
2022.0,0.311264
2030.0,0.311902
2038.0,0.312912
2046.0,0.313137
2054.0,0.31185
2062.0,0.313595
2070.0,0.316732
2078.0,0.320626
2086.0,0.318667
2094.0,0.317313
2102.0,0.31816
2110.0,0.320506
2118.0,0.317543
2126.0,0.32039
2134.0,0.320438
2142.0,0.322315
2150.0,0.318532
2158.0,0.317549
2166.0,0.317723
2174.0,0.312783
2182.0,0.315305
2190.0,0.311041
2198.0,0.312539
2206.0,0.307045
2214.0,0.306291
2222.0,0.307644
2230.0,0.309352
2238.0,0.306896
2246.0,0.30735
2254.0,0.304423
2262.0,0.305907
2270.0,0.300997
2278.0,0.302153
2286.0,0.308372
2294.0,0.310386
2302.0,0.300818
2310.0,0.309319
2318.0,0.301765
2326.0,0.303796
2334.0,0.305653
2342.0,0.303238
2350.0,0.29771
2358.0,0.30637
2366.0,0.300413
2374.0,0.309279
2382.0,0.301229
2390.0,0.294361
2398.0,0.309292
2406.0,0.298018
2414.0,0.338946
2422.0,0.310702
2430.0,0.294685
2438.0,0.280098
2446.0,0.304587
2454.0,0.281289
2462.0,0.307553
2470.0,0.301161
2478.0,0.316544
2486.0,0.314411
2494.0,0.272671
2500.0,0.267917