File: data/spectra_ascii/AsphaltTrockenVerschmutzung2___corthum00451.txt
Wavelength (nm),Reflectance
350.0,0.080927
358.0,0.0830497
366.0,0.084946
374.0,0.0874533
382.0,0.090892
390.0,0.0933419
398.0,0.0965738
406.0,0.0988945
414.0,0.101526
422.0,0.10415
430.0,0.107333
438.0,0.110424
446.0,0.113319
454.0,0.115908
462.0,0.118243
470.0,0.120469
478.0,0.122621
486.0,0.125091
494.0,0.127921
502.0,0.130839
510.0,0.133764
518.0,0.136806
526.0,0.139957
534.0,0.143668
542.0,0.147849
550.0,0.152371
558.0,0.157531
566.0,0.16254
574.0,0.167311
582.0,0.17161
590.0,0.175597
598.0,0.178903
606.0,0.181988
614.0,0.184748
622.0,0.187365
630.0,0.189888
638.0,0.192257
646.0,0.194605
654.0,0.196708
662.0,0.198652
670.0,0.200502
678.0,0.202193
686.0,0.203789
694.0,0.205332
702.0,0.206624
710.0,0.207857
718.0,0.20942
726.0,0.210709
734.0,0.212048
742.0,0.213643
750.0,0.215126
758.0,0.217018
766.0,0.218829
774.0,0.220046
782.0,0.221577
790.0,0.223055
798.0,0.224521
806.0,0.225771
814.0,0.227197
822.0,0.228407
830.0,0.229493
838.0,0.230545
846.0,0.231566
854.0,0.232711
862.0,0.233457
870.0,0.234129
878.0,0.235087
886.0,0.236131
894.0,0.237041
902.0,0.237926
910.0,0.23889
918.0,0.239502
926.0,0.240192
934.0,0.238355
942.0,0.239707
950.0,0.240849
958.0,0.241057
966.0,0.24303
974.0,0.243028
982.0,0.244001
990.0,0.245004
998.0,0.244893
1006.0,0.24945
1014.0,0.250264
1022.0,0.251057
1030.0,0.251049
1038.0,0.251187
1046.0,0.251448
1054.0,0.252349
1062.0,0.252536
1070.0,0.251726
1078.0,0.252718
1086.0,0.252739
1094.0,0.253062
1102.0,0.253661
1110.0,0.254719
1118.0,0.255374
1126.0,0.255922
1134.0,0.254553
1142.0,0.255692
1150.0,0.255999
1158.0,0.256483
1166.0,0.256439
1174.0,0.257474
1182.0,0.257559
1190.0,0.258679
1198.0,0.258973
1206.0,0.259075
1214.0,0.259106
1222.0,0.259215
1230.0,0.259573
1238.0,0.258716
1246.0,0.259054
1254.0,0.259552
1262.0,0.259594
1270.0,0.259128
1278.0,0.259194
1286.0,0.259388
1294.0,0.259298
1302.0,0.259503
1310.0,0.259836
1318.0,0.259835
1326.0,0.260528
1334.0,0.26085
1342.0,0.262628
1350.0,0.264173
1358.0,0.289743
1366.0,0.384219
1374.0,0.689379
1382.0,0.372482
1390.0,0.307945
1398.0,0.276923
1406.0,0.268835
1414.0,0.261389
1422.0,0.265951
1430.0,0.264732
1438.0,0.264729
1446.0,0.265035
1454.0,0.264648
1462.0,0.266421
1470.0,0.265175
1478.0,0.268461
1486.0,0.267548
1494.0,0.268181
1502.0,0.2683
1510.0,0.26828
1518.0,0.268148
1526.0,0.268484
1534.0,0.268376
1542.0,0.26849
1550.0,0.268167
1558.0,0.26819
1566.0,0.268302
1574.0,0.268
1582.0,0.267639
1590.0,0.267272
1598.0,0.267238
1606.0,0.266482
1614.0,0.265049
1622.0,0.264606
1630.0,0.265664
1638.0,0.264484
1646.0,0.264427
1654.0,0.264542
1662.0,0.264422
1670.0,0.264759
1678.0,0.264637
1686.0,0.264928
1694.0,0.264483
1702.0,0.265366
1710.0,0.26486
1718.0,0.265273
1726.0,0.265342
1734.0,0.264835
1742.0,0.265848
1750.0,0.265333
1758.0,0.264565
1766.0,0.266305
1774.0,0.265299
1782.0,0.265239
1790.0,0.266421
1798.0,0.264113
1806.0,0.270345
1814.0,0.299438
1822.0,0.257815
1830.0,0.166101
1838.0,0.0
1846.0,0.301988
1854.0,0.610011
1862.0,1.0
1870.0,0.523738
1878.0,1.0
1886.0,0.25891
1894.0,0.173769
1902.0,0.231275
1910.0,0.679662
1918.0,0.2899
1926.0,0.289503
1934.0,0.269401
1942.0,0.269952
1950.0,0.237982
1958.0,0.273219
1966.0,0.258843
1974.0,0.256574
1982.0,0.26198
1990.0,0.259749
1998.0,0.266578
2006.0,0.263958
2014.0,0.272072
2022.0,0.25883
2030.0,0.263567
2038.0,0.262875
2046.0,0.269042
2054.0,0.270246
2062.0,0.268304
2070.0,0.268711
2078.0,0.266651
2086.0,0.267275
2094.0,0.27142
2102.0,0.269596
2110.0,0.26919
2118.0,0.269683
2126.0,0.268618
2134.0,0.268346
2142.0,0.267845
2150.0,0.269085
2158.0,0.268047
2166.0,0.26718
2174.0,0.260507
2182.0,0.263611
2190.0,0.258747
2198.0,0.258734
2206.0,0.254055
2214.0,0.257069
2222.0,0.256277
2230.0,0.253445
2238.0,0.253956
2246.0,0.258693
2254.0,0.252134
2262.0,0.256852
2270.0,0.255466
2278.0,0.255662
2286.0,0.254383
2294.0,0.253305
2302.0,0.24533
2310.0,0.251139
2318.0,0.254489
2326.0,0.248556
2334.0,0.249499
2342.0,0.25719
2350.0,0.253538
2358.0,0.257093
2366.0,0.251337
2374.0,0.260157
2382.0,0.241931
2390.0,0.247112
2398.0,0.246288
2406.0,0.255396
2414.0,0.226408
2422.0,0.247867
2430.0,0.257455
2438.0,0.244083
2446.0,0.30013
2454.0,0.223151
2462.0,0.259085
2470.0,0.267348
2478.0,0.323652
2486.0,0.226991
2494.0,0.200056
2500.0,0.315879