File: data/spectra_ascii/AsphaltTrockenVerschmutzung1___corthum00393.txt
Wavelength (nm),Reflectance
350.0,0.0796676
358.0,0.0814214
366.0,0.084377
374.0,0.0868202
382.0,0.0901716
390.0,0.0937122
398.0,0.0966937
406.0,0.0993035
414.0,0.102171
422.0,0.105181
430.0,0.108569
438.0,0.111907
446.0,0.115116
454.0,0.11795
462.0,0.120395
470.0,0.122665
478.0,0.124995
486.0,0.127862
494.0,0.131171
502.0,0.13445
510.0,0.137923
518.0,0.141644
526.0,0.145441
534.0,0.14987
542.0,0.155016
550.0,0.16074
558.0,0.167345
566.0,0.173823
574.0,0.180212
582.0,0.185956
590.0,0.19094
598.0,0.19518
606.0,0.198848
614.0,0.202211
622.0,0.205237
630.0,0.208278
638.0,0.211095
646.0,0.213819
654.0,0.216524
662.0,0.219214
670.0,0.221668
678.0,0.224161
686.0,0.226509
694.0,0.228822
702.0,0.231089
710.0,0.233509
718.0,0.235766
726.0,0.238119
734.0,0.240576
742.0,0.243009
750.0,0.245509
758.0,0.248048
766.0,0.250294
774.0,0.252533
782.0,0.254646
790.0,0.256729
798.0,0.258714
806.0,0.260544
814.0,0.262371
822.0,0.264196
830.0,0.265779
838.0,0.267515
846.0,0.268961
854.0,0.270523
862.0,0.272032
870.0,0.273324
878.0,0.274824
886.0,0.27637
894.0,0.27753
902.0,0.278916
910.0,0.280072
918.0,0.282053
926.0,0.282858
934.0,0.281512
942.0,0.283741
950.0,0.28458
958.0,0.287376
966.0,0.289118
974.0,0.290296
982.0,0.292495
990.0,0.293157
998.0,0.294182
1006.0,0.299602
1014.0,0.300673
1022.0,0.300449
1030.0,0.301721
1038.0,0.302213
1046.0,0.302649
1054.0,0.303657
1062.0,0.304024
1070.0,0.305251
1078.0,0.30518
1086.0,0.306145
1094.0,0.307549
1102.0,0.307161
1110.0,0.307226
1118.0,0.307636
1126.0,0.305907
1134.0,0.307653
1142.0,0.310581
1150.0,0.310619
1158.0,0.312777
1166.0,0.31363
1174.0,0.314895
1182.0,0.315253
1190.0,0.316023
1198.0,0.316941
1206.0,0.317209
1214.0,0.318177
1222.0,0.317652
1230.0,0.318368
1238.0,0.318258
1246.0,0.318176
1254.0,0.3185
1262.0,0.318259
1270.0,0.318649
1278.0,0.319926
1286.0,0.319583
1294.0,0.319967
1302.0,0.320562
1310.0,0.320282
1318.0,0.321568
1326.0,0.321288
1334.0,0.321685
1342.0,0.322472
1350.0,0.31783
1358.0,0.341316
1366.0,0.249388
1374.0,0.355365
1382.0,0.314829
1390.0,0.275776
1398.0,0.311228
1406.0,0.309535
1414.0,0.315759
1422.0,0.319585
1430.0,0.323036
1438.0,0.324736
1446.0,0.324268
1454.0,0.326902
1462.0,0.327243
1470.0,0.328142
1478.0,0.328657
1486.0,0.330859
1494.0,0.332534
1502.0,0.332692
1510.0,0.333094
1518.0,0.332988
1526.0,0.333965
1534.0,0.333482
1542.0,0.334284
1550.0,0.334213
1558.0,0.333913
1566.0,0.333876
1574.0,0.333016
1582.0,0.334032
1590.0,0.333927
1598.0,0.333252
1606.0,0.333696
1614.0,0.332985
1622.0,0.332723
1630.0,0.332305
1638.0,0.331798
1646.0,0.33092
1654.0,0.331589
1662.0,0.331065
1670.0,0.330463
1678.0,0.331833
1686.0,0.333232
1694.0,0.333363
1702.0,0.333773
1710.0,0.334353
1718.0,0.333944
1726.0,0.334329
1734.0,0.334883
1742.0,0.333331
1750.0,0.333393
1758.0,0.333531
1766.0,0.332908
1774.0,0.333575
1782.0,0.332315
1790.0,0.33401
1798.0,0.331719
1806.0,0.333512
1814.0,0.333239
1822.0,0.331897
1830.0,0.364829
1838.0,0.205768
1846.0,0.0
1854.0,0.168175
1862.0,0.46514
1870.0,1.0
1878.0,0.562444
1886.0,0.384893
1894.0,0.450102
1902.0,0.483975
1910.0,0.153296
1918.0,0.317477
1926.0,0.249748
1934.0,0.282752
1942.0,0.307169
1950.0,0.316605
1958.0,0.335918
1966.0,0.324648
1974.0,0.325618
1982.0,0.327601
1990.0,0.325298
1998.0,0.325627
2006.0,0.338936
2014.0,0.324443
2022.0,0.33303
2030.0,0.333559
2038.0,0.335364
2046.0,0.3371
2054.0,0.337547
2062.0,0.336492
2070.0,0.337289
2078.0,0.341544
2086.0,0.342369
2094.0,0.341325
2102.0,0.341699
2110.0,0.344965
2118.0,0.340067
2126.0,0.344703
2134.0,0.343139
2142.0,0.344457
2150.0,0.340508
2158.0,0.340392
2166.0,0.338936
2174.0,0.334381
2182.0,0.334806
2190.0,0.331639
2198.0,0.331692
2206.0,0.327551
2214.0,0.324572
2222.0,0.329196
2230.0,0.328768
2238.0,0.327994
2246.0,0.324418
2254.0,0.32266
2262.0,0.329359
2270.0,0.328657
2278.0,0.322837
2286.0,0.327671
2294.0,0.325756
2302.0,0.319616
2310.0,0.331358
2318.0,0.316823
2326.0,0.320526
2334.0,0.328325
2342.0,0.325103
2350.0,0.319937
2358.0,0.332019
2366.0,0.324898
2374.0,0.330689
2382.0,0.333609
2390.0,0.326337
2398.0,0.332448
2406.0,0.307977
2414.0,0.353589
2422.0,0.31261
2430.0,0.302266
2438.0,0.307748
2446.0,0.277142
2454.0,0.31555
2462.0,0.320359
2470.0,0.310767
2478.0,0.285001
2486.0,0.364193
2494.0,0.352793
2500.0,0.433399