File: data/spectra_ascii/AsphaltTrockenVerschmutzung1___corthum00394.txt
Wavelength (nm),Reflectance
350.0,0.0784702
358.0,0.0799907
366.0,0.0826872
374.0,0.085356
382.0,0.0884411
390.0,0.0918131
398.0,0.0945525
406.0,0.097115
414.0,0.0998376
422.0,0.102634
430.0,0.105822
438.0,0.108997
446.0,0.111955
454.0,0.114644
462.0,0.117005
470.0,0.119186
478.0,0.121465
486.0,0.124254
494.0,0.127263
502.0,0.130519
510.0,0.133744
518.0,0.137289
526.0,0.140907
534.0,0.14509
542.0,0.149854
550.0,0.155166
558.0,0.161226
566.0,0.167172
574.0,0.173019
582.0,0.178388
590.0,0.183101
598.0,0.18695
606.0,0.190502
614.0,0.193772
622.0,0.19675
630.0,0.199694
638.0,0.202516
646.0,0.205259
654.0,0.207947
662.0,0.210701
670.0,0.213187
678.0,0.215777
686.0,0.218209
694.0,0.220655
702.0,0.222989
710.0,0.225362
718.0,0.227827
726.0,0.23032
734.0,0.232838
742.0,0.235442
750.0,0.238077
758.0,0.240812
766.0,0.243469
774.0,0.24574
782.0,0.24808
790.0,0.250453
798.0,0.252786
806.0,0.254918
814.0,0.257097
822.0,0.259118
830.0,0.261109
838.0,0.262892
846.0,0.264654
854.0,0.266589
862.0,0.268323
870.0,0.269877
878.0,0.271623
886.0,0.273361
894.0,0.27488
902.0,0.276649
910.0,0.2783
918.0,0.280063
926.0,0.281326
934.0,0.280491
942.0,0.283539
950.0,0.283705
958.0,0.286384
966.0,0.288801
974.0,0.28987
982.0,0.292099
990.0,0.29296
998.0,0.293773
1006.0,0.30008
1014.0,0.301142
1022.0,0.301329
1030.0,0.302912
1038.0,0.302424
1046.0,0.303568
1054.0,0.303997
1062.0,0.304867
1070.0,0.306173
1078.0,0.306813
1086.0,0.307382
1094.0,0.308956
1102.0,0.308818
1110.0,0.309353
1118.0,0.309376
1126.0,0.310138
1134.0,0.31086
1142.0,0.312919
1150.0,0.31293
1158.0,0.31516
1166.0,0.315632
1174.0,0.316653
1182.0,0.317594
1190.0,0.318143
1198.0,0.319103
1206.0,0.31945
1214.0,0.320333
1222.0,0.320194
1230.0,0.320705
1238.0,0.320617
1246.0,0.320455
1254.0,0.321045
1262.0,0.320814
1270.0,0.321372
1278.0,0.322358
1286.0,0.322471
1294.0,0.322687
1302.0,0.323586
1310.0,0.323837
1318.0,0.324732
1326.0,0.324931
1334.0,0.324848
1342.0,0.325936
1350.0,0.323453
1358.0,0.339666
1366.0,0.245868
1374.0,0.407577
1382.0,0.276254
1390.0,0.277555
1398.0,0.305177
1406.0,0.309102
1414.0,0.322389
1422.0,0.325637
1430.0,0.327548
1438.0,0.328024
1446.0,0.328195
1454.0,0.329253
1462.0,0.330194
1470.0,0.331625
1478.0,0.331904
1486.0,0.33405
1494.0,0.334862
1502.0,0.334536
1510.0,0.335174
1518.0,0.335248
1526.0,0.33599
1534.0,0.336268
1542.0,0.336633
1550.0,0.335948
1558.0,0.336121
1566.0,0.335981
1574.0,0.335508
1582.0,0.336358
1590.0,0.336347
1598.0,0.336399
1606.0,0.33576
1614.0,0.335913
1622.0,0.33542
1630.0,0.334788
1638.0,0.334353
1646.0,0.333661
1654.0,0.333681
1662.0,0.333403
1670.0,0.332698
1678.0,0.334002
1686.0,0.335139
1694.0,0.335381
1702.0,0.335657
1710.0,0.33608
1718.0,0.335324
1726.0,0.33595
1734.0,0.335917
1742.0,0.33565
1750.0,0.335345
1758.0,0.336101
1766.0,0.336605
1774.0,0.336154
1782.0,0.335854
1790.0,0.337401
1798.0,0.334905
1806.0,0.355823
1814.0,0.340758
1822.0,0.380021
1830.0,0.463437
1838.0,0.595877
1846.0,0.0
1854.0,0.110754
1862.0,0.764535
1870.0,1.0
1878.0,0.896978
1886.0,0.359347
1894.0,0.488657
1902.0,0.393889
1910.0,0.34628
1918.0,0.398083
1926.0,0.315892
1934.0,0.353126
1942.0,0.315888
1950.0,0.316608
1958.0,0.341655
1966.0,0.331178
1974.0,0.327713
1982.0,0.32632
1990.0,0.329735
1998.0,0.331735
2006.0,0.342942
2014.0,0.340062
2022.0,0.339684
2030.0,0.332086
2038.0,0.336295
2046.0,0.335121
2054.0,0.339993
2062.0,0.337208
2070.0,0.337544
2078.0,0.342088
2086.0,0.343078
2094.0,0.340399
2102.0,0.343703
2110.0,0.345587
2118.0,0.339983
2126.0,0.34538
2134.0,0.343115
2142.0,0.344899
2150.0,0.34079
2158.0,0.339352
2166.0,0.33712
2174.0,0.333627
2182.0,0.334755
2190.0,0.331915
2198.0,0.33123
2206.0,0.328015
2214.0,0.325381
2222.0,0.328104
2230.0,0.329508
2238.0,0.330569
2246.0,0.327958
2254.0,0.326044
2262.0,0.326736
2270.0,0.325171
2278.0,0.325175
2286.0,0.327856
2294.0,0.3269
2302.0,0.323701
2310.0,0.326682
2318.0,0.325427
2326.0,0.326946
2334.0,0.333415
2342.0,0.330085
2350.0,0.324753
2358.0,0.328283
2366.0,0.325712
2374.0,0.342244
2382.0,0.329441
2390.0,0.312283
2398.0,0.323715
2406.0,0.322113
2414.0,0.34145
2422.0,0.3208
2430.0,0.323124
2438.0,0.290238
2446.0,0.361469
2454.0,0.300673
2462.0,0.315375
2470.0,0.320508
2478.0,0.368959
2486.0,0.5725
2494.0,0.396412
2500.0,0.315695