File: data/spectra_ascii/AsphaltTrockenVerschmutzung2___corthum00454.txt
Wavelength (nm),Reflectance
350.0,0.073032
358.0,0.0753947
366.0,0.076988
374.0,0.0798277
382.0,0.0830612
390.0,0.0855988
398.0,0.0886485
406.0,0.0908452
414.0,0.0933481
422.0,0.0958994
430.0,0.0989412
438.0,0.101907
446.0,0.104733
454.0,0.107219
462.0,0.109469
470.0,0.111862
478.0,0.113967
486.0,0.116487
494.0,0.119218
502.0,0.122128
510.0,0.124957
518.0,0.127931
526.0,0.131037
534.0,0.134639
542.0,0.138736
550.0,0.143132
558.0,0.148172
566.0,0.153038
574.0,0.157655
582.0,0.161905
590.0,0.16594
598.0,0.169286
606.0,0.172551
614.0,0.175426
622.0,0.178278
630.0,0.180932
638.0,0.183585
646.0,0.186072
654.0,0.188358
662.0,0.190575
670.0,0.192609
678.0,0.194485
686.0,0.19615
694.0,0.197902
702.0,0.199329
710.0,0.200677
718.0,0.202133
726.0,0.203521
734.0,0.205134
742.0,0.206849
750.0,0.208497
758.0,0.210404
766.0,0.212248
774.0,0.213833
782.0,0.21552
790.0,0.217189
798.0,0.218709
806.0,0.220237
814.0,0.221654
822.0,0.22303
830.0,0.224376
838.0,0.225643
846.0,0.226851
854.0,0.228089
862.0,0.229079
870.0,0.230053
878.0,0.230974
886.0,0.231984
894.0,0.233164
902.0,0.23398
910.0,0.234727
918.0,0.235502
926.0,0.236401
934.0,0.233696
942.0,0.234869
950.0,0.235592
958.0,0.237205
966.0,0.239509
974.0,0.24001
982.0,0.24021
990.0,0.24145
998.0,0.24163
1006.0,0.24631
1014.0,0.247079
1022.0,0.247285
1030.0,0.247978
1038.0,0.248077
1046.0,0.248325
1054.0,0.249394
1062.0,0.24941
1070.0,0.248502
1078.0,0.249442
1086.0,0.249726
1094.0,0.250359
1102.0,0.250215
1110.0,0.250891
1118.0,0.251023
1126.0,0.250892
1134.0,0.249743
1142.0,0.251071
1150.0,0.251549
1158.0,0.252916
1166.0,0.253066
1174.0,0.254055
1182.0,0.254525
1190.0,0.255249
1198.0,0.255411
1206.0,0.255411
1214.0,0.255616
1222.0,0.255541
1230.0,0.256178
1238.0,0.255517
1246.0,0.255734
1254.0,0.255646
1262.0,0.255943
1270.0,0.255275
1278.0,0.255473
1286.0,0.255754
1294.0,0.256163
1302.0,0.255571
1310.0,0.255737
1318.0,0.256182
1326.0,0.256428
1334.0,0.25623
1342.0,0.257068
1350.0,0.25649
1358.0,0.250655
1366.0,0.599863
1374.0,0.567128
1382.0,0.371602
1390.0,0.284496
1398.0,0.244959
1406.0,0.252292
1414.0,0.255897
1422.0,0.250966
1430.0,0.256419
1438.0,0.255908
1446.0,0.257705
1454.0,0.258369
1462.0,0.260243
1470.0,0.258858
1478.0,0.262396
1486.0,0.262624
1494.0,0.263958
1502.0,0.264556
1510.0,0.264813
1518.0,0.264755
1526.0,0.264851
1534.0,0.26489
1542.0,0.264068
1550.0,0.264475
1558.0,0.264733
1566.0,0.264129
1574.0,0.264035
1582.0,0.263636
1590.0,0.263357
1598.0,0.262882
1606.0,0.262834
1614.0,0.261463
1622.0,0.260623
1630.0,0.261955
1638.0,0.260614
1646.0,0.261
1654.0,0.260788
1662.0,0.260748
1670.0,0.26116
1678.0,0.26098
1686.0,0.260555
1694.0,0.261164
1702.0,0.260789
1710.0,0.261202
1718.0,0.26042
1726.0,0.260693
1734.0,0.26075
1742.0,0.26089
1750.0,0.259909
1758.0,0.258562
1766.0,0.260556
1774.0,0.259874
1782.0,0.259592
1790.0,0.260166
1798.0,0.261123
1806.0,0.256022
1814.0,0.288876
1822.0,0.246424
1830.0,0.289511
1838.0,0.0
1846.0,0.095835
1854.0,0.108882
1862.0,1.0
1870.0,0.0279673
1878.0,1.0
1886.0,0.199431
1894.0,0.199535
1902.0,0.230334
1910.0,0.657396
1918.0,0.355072
1926.0,0.265109
1934.0,0.245431
1942.0,0.264346
1950.0,0.245539
1958.0,0.247324
1966.0,0.247562
1974.0,0.257065
1982.0,0.257327
1990.0,0.255017
1998.0,0.261853
2006.0,0.252736
2014.0,0.253501
2022.0,0.254635
2030.0,0.260776
2038.0,0.260481
2046.0,0.265201
2054.0,0.266698
2062.0,0.262337
2070.0,0.267038
2078.0,0.263996
2086.0,0.262038
2094.0,0.264737
2102.0,0.263976
2110.0,0.266794
2118.0,0.266911
2126.0,0.263403
2134.0,0.263651
2142.0,0.264445
2150.0,0.265037
2158.0,0.262526
2166.0,0.261577
2174.0,0.256531
2182.0,0.260338
2190.0,0.25416
2198.0,0.252557
2206.0,0.251874
2214.0,0.251919
2222.0,0.251674
2230.0,0.250891
2238.0,0.251142
2246.0,0.254657
2254.0,0.246572
2262.0,0.253911
2270.0,0.257729
2278.0,0.2547
2286.0,0.253173
2294.0,0.248738
2302.0,0.247806
2310.0,0.248687
2318.0,0.248548
2326.0,0.245896
2334.0,0.246246
2342.0,0.254174
2350.0,0.240752
2358.0,0.251945
2366.0,0.244633
2374.0,0.240501
2382.0,0.24498
2390.0,0.241095
2398.0,0.246023
2406.0,0.257946
2414.0,0.219288
2422.0,0.254861
2430.0,0.255088
2438.0,0.234834
2446.0,0.270677
2454.0,0.229322
2462.0,0.252245
2470.0,0.243012
2478.0,0.249203
2486.0,0.211967
2494.0,0.196784
2500.0,0.287591