File: data/spectra_ascii/AsphaltNassPfuetzen___corthum00446.txt
Wavelength (nm),Reflectance
350.0,0.0257122
358.0,0.0251485
366.0,0.0252381
374.0,0.0249025
382.0,0.0246944
390.0,0.0245568
398.0,0.0248906
406.0,0.0247524
414.0,0.0248004
422.0,0.0249493
430.0,0.0253653
438.0,0.0256198
446.0,0.0259416
454.0,0.026125
462.0,0.0264669
470.0,0.0266979
478.0,0.0270558
486.0,0.0274854
494.0,0.0277989
502.0,0.0283238
510.0,0.0288284
518.0,0.0293949
526.0,0.0299927
534.0,0.0307354
542.0,0.0316143
550.0,0.0325761
558.0,0.0337482
566.0,0.0348841
574.0,0.0359805
582.0,0.0369854
590.0,0.0380417
598.0,0.0388299
606.0,0.0395972
614.0,0.0403717
622.0,0.0411084
630.0,0.042003
638.0,0.0426553
646.0,0.0433913
654.0,0.0442153
662.0,0.0450009
670.0,0.0457359
678.0,0.0465066
686.0,0.0474812
694.0,0.0484022
702.0,0.0490929
710.0,0.0499377
718.0,0.0513765
726.0,0.052186
734.0,0.0528566
742.0,0.0536927
750.0,0.0546502
758.0,0.0556493
766.0,0.0571229
774.0,0.0574315
782.0,0.0583866
790.0,0.0592759
798.0,0.0600728
806.0,0.0608768
814.0,0.0621321
822.0,0.0626911
830.0,0.0631264
838.0,0.063666
846.0,0.0642787
854.0,0.0648323
862.0,0.0653274
870.0,0.0658179
878.0,0.0664069
886.0,0.0669856
894.0,0.0676108
902.0,0.0679876
910.0,0.0684179
918.0,0.06879
926.0,0.0688967
934.0,0.0691779
942.0,0.069035
950.0,0.0679605
958.0,0.067111
966.0,0.0665693
974.0,0.0674756
982.0,0.0673903
990.0,0.068067
998.0,0.0679312
1006.0,0.0714585
1014.0,0.0719738
1022.0,0.0725134
1030.0,0.073367
1038.0,0.0738181
1046.0,0.0746863
1054.0,0.0757611
1062.0,0.0752977
1070.0,0.0761706
1078.0,0.0761881
1086.0,0.0764695
1094.0,0.0767503
1102.0,0.0765158
1110.0,0.0765057
1118.0,0.0774889
1126.0,0.0783561
1134.0,0.0751466
1142.0,0.0724828
1150.0,0.0694693
1158.0,0.0676362
1166.0,0.0667494
1174.0,0.0665391
1182.0,0.0658423
1190.0,0.0656898
1198.0,0.0659372
1206.0,0.0659319
1214.0,0.0661697
1222.0,0.0664633
1230.0,0.0666688
1238.0,0.067063
1246.0,0.0671361
1254.0,0.0676817
1262.0,0.068554
1270.0,0.0689586
1278.0,0.068587
1286.0,0.0677413
1294.0,0.0672391
1302.0,0.066247
1310.0,0.064886
1318.0,0.0631606
1326.0,0.0611813
1334.0,0.0593364
1342.0,0.057727
1350.0,0.0575414
1358.0,0.0687832
1366.0,0.181526
1374.0,0.0456149
1382.0,0.0792247
1390.0,0.0604739
1398.0,0.029611
1406.0,0.0424016
1414.0,0.0228695
1422.0,0.0215911
1430.0,0.0195835
1438.0,0.0204898
1446.0,0.0177564
1454.0,0.0162755
1462.0,0.0153762
1470.0,0.0154192
1478.0,0.0155089
1486.0,0.0151533
1494.0,0.0158502
1502.0,0.0167686
1510.0,0.0177895
1518.0,0.0190664
1526.0,0.0205106
1534.0,0.0220038
1542.0,0.0234051
1550.0,0.0249036
1558.0,0.0262379
1566.0,0.0279501
1574.0,0.0296799
1582.0,0.0309901
1590.0,0.0323282
1598.0,0.0331838
1606.0,0.0342984
1614.0,0.0349836
1622.0,0.0363568
1630.0,0.0368528
1638.0,0.0372101
1646.0,0.0381421
1654.0,0.0384979
1662.0,0.0392399
1670.0,0.0394624
1678.0,0.039776
1686.0,0.0398485
1694.0,0.0401895
1702.0,0.0398169
1710.0,0.0399211
1718.0,0.038964
1726.0,0.0386521
1734.0,0.038005
1742.0,0.037969
1750.0,0.0358153
1758.0,0.0345261
1766.0,0.0335705
1774.0,0.0331211
1782.0,0.032694
1790.0,0.0330839
1798.0,0.0342438
1806.0,0.0477257
1814.0,0.0593351
1822.0,0.0501026
1830.0,0.178808
1838.0,0.0
1846.0,0.0
1854.0,0.0
1862.0,0.812535
1870.0,0.0
1878.0,0.0
1886.0,0.228046
1894.0,0.0459357
1902.0,0.0
1910.0,0.244998
1918.0,0.114588
1926.0,0.104487
1934.0,0.0489882
1942.0,0.0172417
1950.0,0.0112539
1958.0,0.00813037
1966.0,0.00745184
1974.0,0.00721881
1982.0,0.00697687
1990.0,0.00688033
1998.0,0.0078585
2006.0,0.0199943
2014.0,0.0260427
2022.0,0.0106794
2030.0,0.00998398
2038.0,0.00802838
2046.0,0.0102492
2054.0,0.0118451
2062.0,0.0124409
2070.0,0.0107461
2078.0,0.0121924
2086.0,0.0127933
2094.0,0.0152629
2102.0,0.0151989
2110.0,0.0153014
2118.0,0.0154108
2126.0,0.0161426
2134.0,0.0178211
2142.0,0.0170532
2150.0,0.0175687
2158.0,0.017997
2166.0,0.0215073
2174.0,0.0185444
2182.0,0.0192916
2190.0,0.0176328
2198.0,0.0224621
2206.0,0.018736
2214.0,0.0188114
2222.0,0.0179583
2230.0,0.0196746
2238.0,0.0216687
2246.0,0.0184298
2254.0,0.0205617
2262.0,0.0195009
2270.0,0.0177672
2278.0,0.0152284
2286.0,0.0166506
2294.0,0.0169504
2302.0,0.0121962
2310.0,0.0146872
2318.0,0.0143459
2326.0,0.015943
2334.0,0.0149731
2342.0,0.0148912
2350.0,0.00599768
2358.0,0.0116254
2366.0,0.0157969
2374.0,0.0252989
2382.0,0.020929
2390.0,0.0201362
2398.0,0.0178029
2406.0,0.0117663
2414.0,0.0134873
2422.0,0.0159927
2430.0,0.00419607
2438.0,0.0
2446.0,0.0
2454.0,0.0
2462.0,0.0185993
2470.0,0.0
2478.0,0.0448598
2486.0,0.0
2494.0,0.161229
2500.0,0.167917