File: data/spectra_ascii/AsphaltNassPfuetzen___corthum00441.txt
Wavelength (nm),Reflectance
350.0,0.0242581
358.0,0.0241157
366.0,0.0233593
374.0,0.023275
382.0,0.0232862
390.0,0.0229062
398.0,0.0232514
406.0,0.023273
414.0,0.0233643
422.0,0.0236221
430.0,0.0240225
438.0,0.0244327
446.0,0.0248782
454.0,0.0252109
462.0,0.025675
470.0,0.0261081
478.0,0.0264828
486.0,0.0269749
494.0,0.0275303
502.0,0.0281759
510.0,0.0287569
518.0,0.0294723
526.0,0.0300694
534.0,0.0310003
542.0,0.0319632
550.0,0.0330261
558.0,0.0342112
566.0,0.0353924
574.0,0.0365519
582.0,0.0374884
590.0,0.03865
598.0,0.0394236
606.0,0.0401682
614.0,0.0409372
622.0,0.0416933
630.0,0.0425754
638.0,0.043223
646.0,0.0439385
654.0,0.0446663
662.0,0.0454286
670.0,0.0460793
678.0,0.0467906
686.0,0.0476522
694.0,0.0483814
702.0,0.0489284
710.0,0.0495312
718.0,0.0508542
726.0,0.0513712
734.0,0.0517669
742.0,0.052362
750.0,0.0530996
758.0,0.0538149
766.0,0.0550829
774.0,0.0550828
782.0,0.0557017
790.0,0.0562925
798.0,0.0568231
806.0,0.0573264
814.0,0.0582093
822.0,0.0585631
830.0,0.0586798
838.0,0.0588582
846.0,0.0589335
854.0,0.0594601
862.0,0.0595369
870.0,0.0597542
878.0,0.0601222
886.0,0.0603085
894.0,0.0606826
902.0,0.0609403
910.0,0.060972
918.0,0.0614668
926.0,0.061256
934.0,0.0616331
942.0,0.0614861
950.0,0.0597766
958.0,0.0586271
966.0,0.0581849
974.0,0.0581293
982.0,0.0575201
990.0,0.0578307
998.0,0.0588944
1006.0,0.0612342
1014.0,0.0618141
1022.0,0.0626248
1030.0,0.063229
1038.0,0.0641075
1046.0,0.0645353
1054.0,0.0648268
1062.0,0.0650687
1070.0,0.0655698
1078.0,0.0659175
1086.0,0.0654374
1094.0,0.0654235
1102.0,0.065981
1110.0,0.0655825
1118.0,0.06667
1126.0,0.0665147
1134.0,0.064145
1142.0,0.0621345
1150.0,0.0594006
1158.0,0.0569046
1166.0,0.0558177
1174.0,0.0555707
1182.0,0.0555029
1190.0,0.055342
1198.0,0.0551524
1206.0,0.0552428
1214.0,0.0553334
1222.0,0.0555454
1230.0,0.0560657
1238.0,0.0563882
1246.0,0.0567632
1254.0,0.0571771
1262.0,0.0577008
1270.0,0.0577046
1278.0,0.0576358
1286.0,0.0572294
1294.0,0.0568848
1302.0,0.0560845
1310.0,0.0550191
1318.0,0.0532256
1326.0,0.0514131
1334.0,0.0495988
1342.0,0.0480419
1350.0,0.0492076
1358.0,0.0496696
1366.0,0.259322
1374.0,0.0495423
1382.0,0.036915
1390.0,0.0579764
1398.0,0.0222624
1406.0,0.0275364
1414.0,0.021132
1422.0,0.0219928
1430.0,0.0166382
1438.0,0.0139473
1446.0,0.0126918
1454.0,0.0120595
1462.0,0.011395
1470.0,0.011823
1478.0,0.0113238
1486.0,0.0120235
1494.0,0.0121472
1502.0,0.0127857
1510.0,0.0136247
1518.0,0.0144067
1526.0,0.0155978
1534.0,0.0168236
1542.0,0.0182354
1550.0,0.0193295
1558.0,0.0205743
1566.0,0.0226149
1574.0,0.0238564
1582.0,0.0247922
1590.0,0.0259738
1598.0,0.0266935
1606.0,0.0278485
1614.0,0.0285757
1622.0,0.0296221
1630.0,0.0303015
1638.0,0.0307955
1646.0,0.0315759
1654.0,0.0315087
1662.0,0.032123
1670.0,0.0322227
1678.0,0.0328813
1686.0,0.032824
1694.0,0.0326079
1702.0,0.0329471
1710.0,0.0325853
1718.0,0.0325765
1726.0,0.0318932
1734.0,0.0306167
1742.0,0.0306313
1750.0,0.0286378
1758.0,0.0269932
1766.0,0.0274618
1774.0,0.0270144
1782.0,0.0266439
1790.0,0.0253544
1798.0,0.0265547
1806.0,0.0479908
1814.0,0.0646883
1822.0,0.0775798
1830.0,0.120001
1838.0,0.0
1846.0,0.0
1854.0,0.0
1862.0,0.701087
1870.0,0.198056
1878.0,0.352607
1886.0,0.106847
1894.0,0.085286
1902.0,0.0
1910.0,0.0
1918.0,0.126096
1926.0,0.0878363
1934.0,0.0388361
1942.0,0.011135
1950.0,0.0256844
1958.0,0.0254631
1966.0,0.0174106
1974.0,0.00813439
1982.0,0.00732045
1990.0,0.00581721
1998.0,0.00462102
2006.0,0.00862932
2014.0,0.0115006
2022.0,0.0102089
2030.0,0.00600766
2038.0,0.00683366
2046.0,0.00817916
2054.0,0.00846248
2062.0,0.0101652
2070.0,0.0107656
2078.0,0.00921157
2086.0,0.00955682
2094.0,0.00741185
2102.0,0.00996469
2110.0,0.00991839
2118.0,0.014547
2126.0,0.0129872
2134.0,0.0118497
2142.0,0.0129519
2150.0,0.01396
2158.0,0.0154715
2166.0,0.0146917
2174.0,0.0140989
2182.0,0.0144145
2190.0,0.0158735
2198.0,0.0155039
2206.0,0.0141353
2214.0,0.0169511
2222.0,0.0141638
2230.0,0.0136606
2238.0,0.0150507
2246.0,0.0167181
2254.0,0.0133368
2262.0,0.0149848
2270.0,0.0130106
2278.0,0.0158082
2286.0,0.0111406
2294.0,0.0108076
2302.0,0.0119754
2310.0,0.0146614
2318.0,0.0161645
2326.0,0.0127241
2334.0,0.00586124
2342.0,0.0132836
2350.0,0.0118461
2358.0,0.00602808
2366.0,0.00358218
2374.0,0.00998879
2382.0,0.0191093
2390.0,0.00942486
2398.0,0.00971099
2406.0,0.0131312
2414.0,0.0120231
2422.0,0.00616278
2430.0,0.00820547
2438.0,0.0196576
2446.0,0.0
2454.0,0.0257769
2462.0,0.0
2470.0,0.0
2478.0,0.0
2486.0,0.00743652
2494.0,0.0591632
2500.0,0.129183