File: data/spectra_ascii/AsphaltNassPfuetzen___corthum00447.txt
Wavelength (nm),Reflectance
350.0,0.0266521
358.0,0.0255465
366.0,0.0250298
374.0,0.0245068
382.0,0.0248565
390.0,0.0245681
398.0,0.0241922
406.0,0.0239485
414.0,0.0238679
422.0,0.0240637
430.0,0.0245006
438.0,0.0248051
446.0,0.025194
454.0,0.0255245
462.0,0.025826
470.0,0.0262643
478.0,0.0266493
486.0,0.0271236
494.0,0.0276204
502.0,0.0281522
510.0,0.0287377
518.0,0.0293506
526.0,0.0300137
534.0,0.0307947
542.0,0.0317328
550.0,0.0327364
558.0,0.033859
566.0,0.0351254
574.0,0.0361499
582.0,0.0371661
590.0,0.0382454
598.0,0.0390775
606.0,0.0398417
614.0,0.0406536
622.0,0.0414382
630.0,0.0424003
638.0,0.0431766
646.0,0.0440081
654.0,0.044907
662.0,0.0457723
670.0,0.0464845
678.0,0.0473297
686.0,0.0483283
694.0,0.0491351
702.0,0.0498418
710.0,0.0505418
718.0,0.0520248
726.0,0.0527411
734.0,0.0532577
742.0,0.0540518
750.0,0.0549088
758.0,0.0559314
766.0,0.057522
774.0,0.0576716
782.0,0.0585385
790.0,0.0594488
798.0,0.060285
806.0,0.0610682
814.0,0.0623119
822.0,0.0630114
830.0,0.0633172
838.0,0.0637849
846.0,0.0642553
854.0,0.0649559
862.0,0.0652302
870.0,0.065826
878.0,0.0664792
886.0,0.0669939
894.0,0.067643
902.0,0.0685427
910.0,0.068762
918.0,0.0691512
926.0,0.0691422
934.0,0.072127
942.0,0.0702432
950.0,0.0693512
958.0,0.067771
966.0,0.0666513
974.0,0.0660856
982.0,0.066158
990.0,0.066538
998.0,0.066345
1006.0,0.0673677
1014.0,0.0677327
1022.0,0.0687093
1030.0,0.0702169
1038.0,0.0710371
1046.0,0.0712869
1054.0,0.0722285
1062.0,0.0727839
1070.0,0.0731052
1078.0,0.0734076
1086.0,0.0728321
1094.0,0.0730883
1102.0,0.0732022
1110.0,0.0729892
1118.0,0.0732953
1126.0,0.0736539
1134.0,0.0710088
1142.0,0.0675475
1150.0,0.0633956
1158.0,0.0604135
1166.0,0.0590956
1174.0,0.058633
1182.0,0.0583369
1190.0,0.057937
1198.0,0.0577433
1206.0,0.0579767
1214.0,0.0582278
1222.0,0.0583468
1230.0,0.0584642
1238.0,0.0590525
1246.0,0.0597337
1254.0,0.0601529
1262.0,0.0608044
1270.0,0.0609617
1278.0,0.0605796
1286.0,0.0598437
1294.0,0.0594111
1302.0,0.0581838
1310.0,0.0564596
1318.0,0.0543556
1326.0,0.0519357
1334.0,0.0495472
1342.0,0.0470098
1350.0,0.0457289
1358.0,0.0568059
1366.0,0.109142
1374.0,0.110115
1382.0,0.0687853
1390.0,0.0435016
1398.0,0.0368131
1406.0,0.0350521
1414.0,0.0224776
1422.0,0.0192841
1430.0,0.0160887
1438.0,0.0146418
1446.0,0.0141895
1454.0,0.0126166
1462.0,0.0123867
1470.0,0.0116854
1478.0,0.0125637
1486.0,0.0121005
1494.0,0.0121783
1502.0,0.0125517
1510.0,0.0128161
1518.0,0.0136914
1526.0,0.0147417
1534.0,0.015929
1542.0,0.0166937
1550.0,0.0180966
1558.0,0.0187248
1566.0,0.0197412
1574.0,0.0208525
1582.0,0.0217083
1590.0,0.0227353
1598.0,0.0239285
1606.0,0.0251936
1614.0,0.0254245
1622.0,0.0262205
1630.0,0.0270261
1638.0,0.0275499
1646.0,0.0282818
1654.0,0.0283665
1662.0,0.0291109
1670.0,0.0296479
1678.0,0.0292783
1686.0,0.0292803
1694.0,0.0293123
1702.0,0.029447
1710.0,0.0297117
1718.0,0.0289546
1726.0,0.0278076
1734.0,0.0273109
1742.0,0.0261798
1750.0,0.0255821
1758.0,0.0246933
1766.0,0.0246818
1774.0,0.0239597
1782.0,0.0233188
1790.0,0.0238411
1798.0,0.026017
1806.0,0.0353377
1814.0,0.061741
1822.0,0.0543347
1830.0,0.0517713
1838.0,0.0
1846.0,0.0
1854.0,0.0
1862.0,0.649888
1870.0,0.496319
1878.0,0.423985
1886.0,0.150141
1894.0,0.0768836
1902.0,0.0
1910.0,0.0476343
1918.0,0.0235511
1926.0,0.0216898
1934.0,0.0310324
1942.0,0.014139
1950.0,0.0260813
1958.0,0.021962
1966.0,0.0126099
1974.0,0.00630072
1982.0,0.00367775
1990.0,0.00705323
1998.0,0.011237
2006.0,0.0181752
2014.0,0.0114108
2022.0,0.00962544
2030.0,0.00478267
2038.0,0.00580737
2046.0,0.0068047
2054.0,0.0124596
2062.0,0.0111901
2070.0,0.00565582
2078.0,0.010976
2086.0,0.00909121
2094.0,0.0125512
2102.0,0.0108777
2110.0,0.0111408
2118.0,0.0122135
2126.0,0.0140368
2134.0,0.0124566
2142.0,0.0126558
2150.0,0.0135478
2158.0,0.0145955
2166.0,0.0144292
2174.0,0.0149777
2182.0,0.013362
2190.0,0.0131765
2198.0,0.0137604
2206.0,0.0136155
2214.0,0.0133492
2222.0,0.0123812
2230.0,0.0147501
2238.0,0.0106182
2246.0,0.0123047
2254.0,0.0163863
2262.0,0.0117332
2270.0,0.0130607
2278.0,0.0143068
2286.0,0.0146177
2294.0,0.016025
2302.0,0.014315
2310.0,0.0139848
2318.0,0.0106827
2326.0,0.0129313
2334.0,0.0095097
2342.0,0.0159185
2350.0,0.0147396
2358.0,0.0139705
2366.0,0.0146606
2374.0,0.00779693
2382.0,0.0168251
2390.0,0.0144047
2398.0,0.0132155
2406.0,0.0123062
2414.0,0.00113487
2422.0,0.0177928
2430.0,0.0153243
2438.0,0.00719737
2446.0,0.0
2454.0,0.019487
2462.0,0.0138906
2470.0,0.0295468
2478.0,0.0348422
2486.0,0.102578
2494.0,0.28161
2500.0,0.117086