File: data/spectra_ascii/AsphaltTrockenVerschmutzung1___corthum00397.txt
Wavelength (nm),Reflectance
350.0,0.0591848
358.0,0.0594738
366.0,0.061728
374.0,0.0637938
382.0,0.0661603
390.0,0.0687545
398.0,0.0703398
406.0,0.0724893
414.0,0.0743778
422.0,0.0765087
430.0,0.078839
438.0,0.0810725
446.0,0.083231
454.0,0.0853768
462.0,0.0872781
470.0,0.0890447
478.0,0.0908698
486.0,0.0931168
494.0,0.0954249
502.0,0.0978284
510.0,0.10048
518.0,0.103324
526.0,0.106225
534.0,0.109618
542.0,0.113577
550.0,0.117981
558.0,0.12307
566.0,0.128161
574.0,0.133263
582.0,0.137924
590.0,0.142327
598.0,0.146019
606.0,0.149518
614.0,0.152819
622.0,0.156006
630.0,0.159135
638.0,0.162185
646.0,0.165185
654.0,0.168155
662.0,0.17113
670.0,0.174058
678.0,0.176997
686.0,0.179839
694.0,0.182803
702.0,0.18562
710.0,0.188449
718.0,0.191648
726.0,0.194625
734.0,0.197516
742.0,0.200543
750.0,0.203741
758.0,0.207018
766.0,0.210418
774.0,0.213146
782.0,0.216101
790.0,0.21918
798.0,0.22218
806.0,0.225012
814.0,0.228061
822.0,0.23089
830.0,0.233589
838.0,0.236191
846.0,0.23874
854.0,0.241369
862.0,0.243878
870.0,0.246241
878.0,0.248758
886.0,0.251314
894.0,0.253671
902.0,0.256102
910.0,0.258493
918.0,0.260791
926.0,0.262784
934.0,0.263427
942.0,0.266313
950.0,0.268431
958.0,0.270552
966.0,0.273278
974.0,0.274976
982.0,0.27762
990.0,0.278048
998.0,0.279506
1006.0,0.287088
1014.0,0.288738
1022.0,0.289592
1030.0,0.290601
1038.0,0.29188
1046.0,0.293223
1054.0,0.295165
1062.0,0.295786
1070.0,0.297622
1078.0,0.298012
1086.0,0.299249
1094.0,0.300841
1102.0,0.301184
1110.0,0.302388
1118.0,0.303644
1126.0,0.304099
1134.0,0.304037
1142.0,0.306954
1150.0,0.307603
1158.0,0.309234
1166.0,0.310084
1174.0,0.311048
1182.0,0.311857
1190.0,0.312316
1198.0,0.313518
1206.0,0.314093
1214.0,0.314819
1222.0,0.314883
1230.0,0.315665
1238.0,0.315656
1246.0,0.315873
1254.0,0.316358
1262.0,0.316555
1270.0,0.317432
1278.0,0.318229
1286.0,0.318592
1294.0,0.319331
1302.0,0.32027
1310.0,0.320479
1318.0,0.321139
1326.0,0.321329
1334.0,0.321982
1342.0,0.32379
1350.0,0.320847
1358.0,0.347626
1366.0,0.188577
1374.0,0.355579
1382.0,0.223555
1390.0,0.276906
1398.0,0.296683
1406.0,0.308674
1414.0,0.312922
1422.0,0.316999
1430.0,0.320542
1438.0,0.319392
1446.0,0.319895
1454.0,0.320569
1462.0,0.320604
1470.0,0.322465
1478.0,0.322739
1486.0,0.324503
1494.0,0.324877
1502.0,0.325035
1510.0,0.325826
1518.0,0.326333
1526.0,0.327493
1534.0,0.327519
1542.0,0.328349
1550.0,0.327933
1558.0,0.327644
1566.0,0.328118
1574.0,0.328231
1582.0,0.32938
1590.0,0.329436
1598.0,0.329488
1606.0,0.329733
1614.0,0.329557
1622.0,0.32952
1630.0,0.328692
1638.0,0.32848
1646.0,0.328794
1654.0,0.328944
1662.0,0.327947
1670.0,0.327438
1678.0,0.328585
1686.0,0.329732
1694.0,0.330433
1702.0,0.330747
1710.0,0.33088
1718.0,0.33084
1726.0,0.330344
1734.0,0.331166
1742.0,0.330226
1750.0,0.330293
1758.0,0.329774
1766.0,0.330451
1774.0,0.329179
1782.0,0.330434
1790.0,0.331424
1798.0,0.333652
1806.0,0.339674
1814.0,0.329584
1822.0,0.341622
1830.0,0.308498
1838.0,0.781379
1846.0,0.0
1854.0,0.132618
1862.0,0.43921
1870.0,1.0
1878.0,0.538081
1886.0,0.23465
1894.0,0.633186
1902.0,0.210396
1910.0,0.0236923
1918.0,0.301237
1926.0,0.2224
1934.0,0.295943
1942.0,0.302156
1950.0,0.308487
1958.0,0.312122
1966.0,0.30931
1974.0,0.311015
1982.0,0.314597
1990.0,0.314747
1998.0,0.314614
2006.0,0.317984
2014.0,0.319794
2022.0,0.325416
2030.0,0.321516
2038.0,0.322828
2046.0,0.320458
2054.0,0.324247
2062.0,0.326327
2070.0,0.324893
2078.0,0.331257
2086.0,0.329047
2094.0,0.32577
2102.0,0.32629
2110.0,0.330611
2118.0,0.324834
2126.0,0.329467
2134.0,0.327296
2142.0,0.330332
2150.0,0.328679
2158.0,0.326555
2166.0,0.32715
2174.0,0.326252
2182.0,0.322686
2190.0,0.319165
2198.0,0.322227
2206.0,0.317487
2214.0,0.316211
2222.0,0.321209
2230.0,0.318951
2238.0,0.318545
2246.0,0.313918
2254.0,0.314834
2262.0,0.315495
2270.0,0.314464
2278.0,0.31158
2286.0,0.317031
2294.0,0.315387
2302.0,0.311878
2310.0,0.315923
2318.0,0.310428
2326.0,0.311339
2334.0,0.319616
2342.0,0.313334
2350.0,0.308076
2358.0,0.315205
2366.0,0.311842
2374.0,0.312183
2382.0,0.306767
2390.0,0.297865
2398.0,0.328936
2406.0,0.317934
2414.0,0.327003
2422.0,0.304241
2430.0,0.310213
2438.0,0.271054
2446.0,0.318736
2454.0,0.269107
2462.0,0.274615
2470.0,0.289669
2478.0,0.272943
2486.0,0.319843
2494.0,0.156592
2500.0,0.20609