File: data/spectra_ascii/AsphaltNassPfuetzen___corthum00445.txt
Wavelength (nm),Reflectance
350.0,0.0253617
358.0,0.0253798
366.0,0.0244929
374.0,0.0248748
382.0,0.024475
390.0,0.0244111
398.0,0.024646
406.0,0.0244936
414.0,0.0245915
422.0,0.0246717
430.0,0.025002
438.0,0.0253982
446.0,0.0256876
454.0,0.0258756
462.0,0.0261898
470.0,0.0265076
478.0,0.0268057
486.0,0.0271685
494.0,0.0275975
502.0,0.0281012
510.0,0.0285701
518.0,0.029168
526.0,0.0297274
534.0,0.0305179
542.0,0.0314243
550.0,0.0323765
558.0,0.0335894
566.0,0.0347326
574.0,0.035894
582.0,0.0368206
590.0,0.0378997
598.0,0.0386562
606.0,0.0394469
614.0,0.0401739
622.0,0.0409157
630.0,0.0417524
638.0,0.0423994
646.0,0.0431005
654.0,0.0438199
662.0,0.0446255
670.0,0.0453081
678.0,0.0460003
686.0,0.0469216
694.0,0.0477532
702.0,0.0483752
710.0,0.0491111
718.0,0.0504767
726.0,0.0511548
734.0,0.0517262
742.0,0.0524431
750.0,0.0533237
758.0,0.054197
766.0,0.0555659
774.0,0.0557372
782.0,0.0565316
790.0,0.0572975
798.0,0.0580089
806.0,0.0586782
814.0,0.0597558
822.0,0.0602881
830.0,0.0605883
838.0,0.0610286
846.0,0.0614126
854.0,0.0619729
862.0,0.062236
870.0,0.0627437
878.0,0.0631498
886.0,0.0636125
894.0,0.0640251
902.0,0.0644362
910.0,0.064932
918.0,0.0651747
926.0,0.0653403
934.0,0.0659233
942.0,0.06538
950.0,0.0645228
958.0,0.0646426
966.0,0.0645195
974.0,0.0645074
982.0,0.0643113
990.0,0.0643392
998.0,0.0646126
1006.0,0.06757
1014.0,0.068078
1022.0,0.0685322
1030.0,0.0692094
1038.0,0.070139
1046.0,0.0703459
1054.0,0.0711663
1062.0,0.0709714
1070.0,0.0712282
1078.0,0.0718177
1086.0,0.0716701
1094.0,0.0719335
1102.0,0.0724039
1110.0,0.0722042
1118.0,0.0733597
1126.0,0.0732509
1134.0,0.0725413
1142.0,0.0698602
1150.0,0.0682713
1158.0,0.0659821
1166.0,0.065306
1174.0,0.0650436
1182.0,0.0647763
1190.0,0.064636
1198.0,0.0644704
1206.0,0.0646105
1214.0,0.0648957
1222.0,0.0654358
1230.0,0.0655663
1238.0,0.0656903
1246.0,0.0659555
1254.0,0.0665759
1262.0,0.0673183
1270.0,0.0671582
1278.0,0.0673213
1286.0,0.0668361
1294.0,0.0663127
1302.0,0.0656998
1310.0,0.0649279
1318.0,0.0632386
1326.0,0.0618535
1334.0,0.0602578
1342.0,0.058364
1350.0,0.0586214
1358.0,0.056842
1366.0,0.0469101
1374.0,0.0234985
1382.0,0.0845365
1390.0,0.00736772
1398.0,0.0215057
1406.0,0.0228972
1414.0,0.0221058
1422.0,0.0193855
1430.0,0.0198329
1438.0,0.017415
1446.0,0.0173097
1454.0,0.0157455
1462.0,0.0149639
1470.0,0.0149697
1478.0,0.0153787
1486.0,0.0160299
1494.0,0.0162607
1502.0,0.017217
1510.0,0.0189385
1518.0,0.0201979
1526.0,0.021805
1534.0,0.0238936
1542.0,0.0257614
1550.0,0.0271229
1558.0,0.0287991
1566.0,0.0304229
1574.0,0.0322728
1582.0,0.0344015
1590.0,0.0351684
1598.0,0.0364226
1606.0,0.0379181
1614.0,0.0393092
1622.0,0.0394168
1630.0,0.0402848
1638.0,0.0412215
1646.0,0.0416261
1654.0,0.0424027
1662.0,0.0428584
1670.0,0.0429723
1678.0,0.043579
1686.0,0.0440543
1694.0,0.0444412
1702.0,0.0439024
1710.0,0.0431795
1718.0,0.0431044
1726.0,0.0423441
1734.0,0.0413478
1742.0,0.0409575
1750.0,0.0398191
1758.0,0.0385135
1766.0,0.0378109
1774.0,0.0370337
1782.0,0.0362683
1790.0,0.0364472
1798.0,0.0354648
1806.0,0.0507896
1814.0,0.060777
1822.0,0.0961658
1830.0,0.19442
1838.0,0.0
1846.0,0.0
1854.0,0.0
1862.0,0.285447
1870.0,0.29867
1878.0,0.232888
1886.0,0.159231
1894.0,0.100749
1902.0,0.0
1910.0,0.343698
1918.0,0.0988469
1926.0,0.0169656
1934.0,0.0337868
1942.0,0.0228806
1950.0,0.0164843
1958.0,0.0201761
1966.0,0.0135543
1974.0,0.00952912
1982.0,0.00650109
1990.0,0.00708153
1998.0,0.00679299
2006.0,0.0221972
2014.0,0.0021333
2022.0,0.0104996
2030.0,0.008552
2038.0,0.0109346
2046.0,0.00975572
2054.0,0.0104965
2062.0,0.0117776
2070.0,0.0099049
2078.0,0.0112962
2086.0,0.0146581
2094.0,0.0138872
2102.0,0.0163618
2110.0,0.0174236
2118.0,0.016432
2126.0,0.0168674
2134.0,0.0184031
2142.0,0.0195417
2150.0,0.0179706
2158.0,0.0210436
2166.0,0.0203876
2174.0,0.0218852
2182.0,0.0181749
2190.0,0.0177195
2198.0,0.0230494
2206.0,0.0248014
2214.0,0.022923
2222.0,0.0182092
2230.0,0.0214849
2238.0,0.022225
2246.0,0.0221114
2254.0,0.018991
2262.0,0.021992
2270.0,0.0218517
2278.0,0.0203711
2286.0,0.0199785
2294.0,0.0205767
2302.0,0.01706
2310.0,0.016308
2318.0,0.0147238
2326.0,0.0131692
2334.0,0.0164117
2342.0,0.0211734
2350.0,0.0163444
2358.0,0.0100232
2366.0,0.0199694
2374.0,0.0128348
2382.0,0.00944874
2390.0,0.0181283
2398.0,0.0180993
2406.0,0.0123143
2414.0,0.0146106
2422.0,0.0296513
2430.0,0.0
2438.0,0.00650654
2446.0,0.0052102
2454.0,0.0324953
2462.0,0.0138826
2470.0,0.0604985
2478.0,0.0372496
2486.0,0.12144
2494.0,0.219238
2500.0,0.0