File: data/spectra_ascii/AsphaltTrockenVerschmutzung2___corthum00450.txt
Wavelength (nm),Reflectance
350.0,0.079077
358.0,0.0809765
366.0,0.0831743
374.0,0.0857911
382.0,0.0889339
390.0,0.0916879
398.0,0.0944684
406.0,0.0966563
414.0,0.0992232
422.0,0.101906
430.0,0.104878
438.0,0.108002
446.0,0.110798
454.0,0.113268
462.0,0.115479
470.0,0.117663
478.0,0.119795
486.0,0.12228
494.0,0.125014
502.0,0.127882
510.0,0.130777
518.0,0.133838
526.0,0.136951
534.0,0.140556
542.0,0.144654
550.0,0.149135
558.0,0.154226
566.0,0.159164
574.0,0.163945
582.0,0.168189
590.0,0.172187
598.0,0.175404
606.0,0.178496
614.0,0.181187
622.0,0.183854
630.0,0.186352
638.0,0.188777
646.0,0.191069
654.0,0.193201
662.0,0.195203
670.0,0.197123
678.0,0.198941
686.0,0.20066
694.0,0.202326
702.0,0.203821
710.0,0.205284
718.0,0.207096
726.0,0.208634
734.0,0.210036
742.0,0.211806
750.0,0.213505
758.0,0.215413
766.0,0.21753
774.0,0.218716
782.0,0.220338
790.0,0.221885
798.0,0.223382
806.0,0.224767
814.0,0.226259
822.0,0.227535
830.0,0.228706
838.0,0.22971
846.0,0.230773
854.0,0.231937
862.0,0.232794
870.0,0.233596
878.0,0.234557
886.0,0.235633
894.0,0.236821
902.0,0.237553
910.0,0.238636
918.0,0.23923
926.0,0.240197
934.0,0.238443
942.0,0.240453
950.0,0.241071
958.0,0.241599
966.0,0.243456
974.0,0.243586
982.0,0.243873
990.0,0.244739
998.0,0.245253
1006.0,0.250302
1014.0,0.250466
1022.0,0.250666
1030.0,0.251271
1038.0,0.251653
1046.0,0.25187
1054.0,0.252889
1062.0,0.2526
1070.0,0.252393
1078.0,0.253135
1086.0,0.253452
1094.0,0.25409
1102.0,0.254609
1110.0,0.255262
1118.0,0.255157
1126.0,0.255448
1134.0,0.254291
1142.0,0.255994
1150.0,0.25655
1158.0,0.258045
1166.0,0.257626
1174.0,0.257918
1182.0,0.258438
1190.0,0.259213
1198.0,0.25944
1206.0,0.259442
1214.0,0.259867
1222.0,0.259827
1230.0,0.260169
1238.0,0.25956
1246.0,0.259796
1254.0,0.260321
1262.0,0.260142
1270.0,0.259973
1278.0,0.25998
1286.0,0.260154
1294.0,0.260201
1302.0,0.260352
1310.0,0.260697
1318.0,0.260529
1326.0,0.26171
1334.0,0.261612
1342.0,0.262832
1350.0,0.263784
1358.0,0.278874
1366.0,0.221585
1374.0,0.549462
1382.0,0.369516
1390.0,0.319911
1398.0,0.249871
1406.0,0.257272
1414.0,0.259551
1422.0,0.26228
1430.0,0.264288
1438.0,0.26492
1446.0,0.264951
1454.0,0.265564
1462.0,0.266464
1470.0,0.265865
1478.0,0.267869
1486.0,0.267415
1494.0,0.268351
1502.0,0.268189
1510.0,0.268272
1518.0,0.268278
1526.0,0.268874
1534.0,0.268361
1542.0,0.268274
1550.0,0.268286
1558.0,0.268222
1566.0,0.268073
1574.0,0.267913
1582.0,0.267769
1590.0,0.267511
1598.0,0.267614
1606.0,0.266956
1614.0,0.265635
1622.0,0.265138
1630.0,0.265857
1638.0,0.264833
1646.0,0.264301
1654.0,0.263606
1662.0,0.264449
1670.0,0.264523
1678.0,0.264773
1686.0,0.265212
1694.0,0.264712
1702.0,0.265432
1710.0,0.26533
1718.0,0.264895
1726.0,0.264863
1734.0,0.265132
1742.0,0.265602
1750.0,0.265384
1758.0,0.264382
1766.0,0.265218
1774.0,0.265438
1782.0,0.264837
1790.0,0.266625
1798.0,0.26376
1806.0,0.264024
1814.0,0.296251
1822.0,0.284243
1830.0,0.33676
1838.0,0.0
1846.0,0.52146
1854.0,0.395429
1862.0,1.0
1870.0,1.0
1878.0,1.0
1886.0,0.349638
1894.0,0.271899
1902.0,0.27793
1910.0,0.334641
1918.0,0.424468
1926.0,0.286398
1934.0,0.277225
1942.0,0.287338
1950.0,0.252388
1958.0,0.261923
1966.0,0.259503
1974.0,0.261593
1982.0,0.261447
1990.0,0.259468
1998.0,0.262785
2006.0,0.266352
2014.0,0.274581
2022.0,0.262329
2030.0,0.261539
2038.0,0.265619
2046.0,0.269463
2054.0,0.268673
2062.0,0.271377
2070.0,0.270234
2078.0,0.266607
2086.0,0.267834
2094.0,0.271258
2102.0,0.269744
2110.0,0.2717
2118.0,0.271415
2126.0,0.269731
2134.0,0.27093
2142.0,0.266058
2150.0,0.268768
2158.0,0.26652
2166.0,0.269537
2174.0,0.260376
2182.0,0.265095
2190.0,0.258453
2198.0,0.257581
2206.0,0.252619
2214.0,0.256699
2222.0,0.255369
2230.0,0.255018
2238.0,0.254047
2246.0,0.256297
2254.0,0.248064
2262.0,0.256667
2270.0,0.259403
2278.0,0.256978
2286.0,0.251169
2294.0,0.256232
2302.0,0.254613
2310.0,0.249837
2318.0,0.255456
2326.0,0.255068
2334.0,0.254094
2342.0,0.248978
2350.0,0.248318
2358.0,0.256717
2366.0,0.253405
2374.0,0.250236
2382.0,0.255594
2390.0,0.251249
2398.0,0.246296
2406.0,0.251779
2414.0,0.233779
2422.0,0.272311
2430.0,0.256244
2438.0,0.24182
2446.0,0.330861
2454.0,0.241801
2462.0,0.250173
2470.0,0.276315
2478.0,0.313427
2486.0,0.245644
2494.0,0.234147
2500.0,0.332422