File: data/spectra_ascii/AsphaltTrockenVerschmutzung1___corthum00398.txt
Wavelength (nm),Reflectance
350.0,0.06344
358.0,0.0649929
366.0,0.0669203
374.0,0.0692653
382.0,0.0717977
390.0,0.0743989
398.0,0.0760796
406.0,0.0782967
414.0,0.0802359
422.0,0.0824816
430.0,0.0848308
438.0,0.08715
446.0,0.0894736
454.0,0.0916199
462.0,0.0935468
470.0,0.0954718
478.0,0.0973283
486.0,0.0995974
494.0,0.102033
502.0,0.104598
510.0,0.107237
518.0,0.110161
526.0,0.113219
534.0,0.116704
542.0,0.120648
550.0,0.124993
558.0,0.129862
566.0,0.134665
574.0,0.139375
582.0,0.143809
590.0,0.147879
598.0,0.151468
606.0,0.154865
614.0,0.158245
622.0,0.16139
630.0,0.16466
638.0,0.167804
646.0,0.170925
654.0,0.173986
662.0,0.177061
670.0,0.180059
678.0,0.182974
686.0,0.185967
694.0,0.188935
702.0,0.191842
710.0,0.194691
718.0,0.197882
726.0,0.200931
734.0,0.203978
742.0,0.207136
750.0,0.210457
758.0,0.213879
766.0,0.217364
774.0,0.220289
782.0,0.22342
790.0,0.226729
798.0,0.229838
806.0,0.232906
814.0,0.236116
822.0,0.239142
830.0,0.242018
838.0,0.244806
846.0,0.247471
854.0,0.250198
862.0,0.252892
870.0,0.255363
878.0,0.25794
886.0,0.260492
894.0,0.262828
902.0,0.265505
910.0,0.267547
918.0,0.270237
926.0,0.271968
934.0,0.271527
942.0,0.275651
950.0,0.276453
958.0,0.27971
966.0,0.281973
974.0,0.2834
982.0,0.286479
990.0,0.287343
998.0,0.28888
1006.0,0.295487
1014.0,0.297098
1022.0,0.297571
1030.0,0.298806
1038.0,0.299501
1046.0,0.300825
1054.0,0.301978
1062.0,0.303184
1070.0,0.304665
1078.0,0.305552
1086.0,0.306241
1094.0,0.308366
1102.0,0.308396
1110.0,0.309562
1118.0,0.310543
1126.0,0.309903
1134.0,0.311927
1142.0,0.313866
1150.0,0.315021
1158.0,0.316164
1166.0,0.317168
1174.0,0.318324
1182.0,0.318795
1190.0,0.319647
1198.0,0.320684
1206.0,0.321085
1214.0,0.322054
1222.0,0.321972
1230.0,0.322795
1238.0,0.323032
1246.0,0.323017
1254.0,0.323379
1262.0,0.322997
1270.0,0.324417
1278.0,0.325267
1286.0,0.325512
1294.0,0.326124
1302.0,0.327323
1310.0,0.327305
1318.0,0.32819
1326.0,0.328348
1334.0,0.328934
1342.0,0.329682
1350.0,0.326791
1358.0,0.340834
1366.0,0.180693
1374.0,0.377082
1382.0,0.258844
1390.0,0.280138
1398.0,0.296804
1406.0,0.312658
1414.0,0.317635
1422.0,0.319602
1430.0,0.325069
1438.0,0.325007
1446.0,0.325406
1454.0,0.325719
1462.0,0.325662
1470.0,0.327043
1478.0,0.327428
1486.0,0.329467
1494.0,0.330717
1502.0,0.330572
1510.0,0.331148
1518.0,0.331476
1526.0,0.332805
1534.0,0.333026
1542.0,0.333296
1550.0,0.333576
1558.0,0.33346
1566.0,0.33394
1574.0,0.333261
1582.0,0.335007
1590.0,0.334928
1598.0,0.33488
1606.0,0.335593
1614.0,0.335127
1622.0,0.33499
1630.0,0.334332
1638.0,0.334522
1646.0,0.333959
1654.0,0.333799
1662.0,0.333437
1670.0,0.332746
1678.0,0.333979
1686.0,0.335743
1694.0,0.335597
1702.0,0.335724
1710.0,0.336431
1718.0,0.335415
1726.0,0.335578
1734.0,0.335763
1742.0,0.335549
1750.0,0.334859
1758.0,0.335223
1766.0,0.335825
1774.0,0.335419
1782.0,0.334351
1790.0,0.3347
1798.0,0.332792
1806.0,0.334112
1814.0,0.33868
1822.0,0.370016
1830.0,0.403261
1838.0,1.0
1846.0,0.0
1854.0,0.33596
1862.0,0.439279
1870.0,1.0
1878.0,0.650045
1886.0,0.321515
1894.0,0.466917
1902.0,0.354868
1910.0,0.260446
1918.0,0.389381
1926.0,0.328928
1934.0,0.322583
1942.0,0.309622
1950.0,0.310301
1958.0,0.315941
1966.0,0.315806
1974.0,0.315406
1982.0,0.317757
1990.0,0.319572
1998.0,0.318778
2006.0,0.341551
2014.0,0.329253
2022.0,0.330885
2030.0,0.323998
2038.0,0.326026
2046.0,0.325781
2054.0,0.327882
2062.0,0.326764
2070.0,0.328943
2078.0,0.332586
2086.0,0.332041
2094.0,0.329118
2102.0,0.328961
2110.0,0.332681
2118.0,0.329572
2126.0,0.334289
2134.0,0.331535
2142.0,0.334248
2150.0,0.330089
2158.0,0.330884
2166.0,0.329806
2174.0,0.326359
2182.0,0.326586
2190.0,0.324439
2198.0,0.325544
2206.0,0.319932
2214.0,0.319234
2222.0,0.322848
2230.0,0.321188
2238.0,0.32051
2246.0,0.320198
2254.0,0.316938
2262.0,0.320813
2270.0,0.315753
2278.0,0.30959
2286.0,0.315189
2294.0,0.318498
2302.0,0.3047
2310.0,0.318582
2318.0,0.317171
2326.0,0.318347
2334.0,0.319716
2342.0,0.312973
2350.0,0.314774
2358.0,0.316809
2366.0,0.31447
2374.0,0.321636
2382.0,0.315225
2390.0,0.311494
2398.0,0.313409
2406.0,0.306377
2414.0,0.348082
2422.0,0.303874
2430.0,0.301114
2438.0,0.293304
2446.0,0.316197
2454.0,0.286653
2462.0,0.310912
2470.0,0.307705
2478.0,0.326652
2486.0,0.707426
2494.0,0.326097
2500.0,0.313416