File: data/spectra_ascii/AsphaltNassPfuetzen___corthum00443.txt
Wavelength (nm),Reflectance
350.0,0.0255446
358.0,0.0249599
366.0,0.0245949
374.0,0.024377
382.0,0.024529
390.0,0.0241871
398.0,0.0246704
406.0,0.0244976
414.0,0.0244543
422.0,0.0246834
430.0,0.024972
438.0,0.0253518
446.0,0.0256582
454.0,0.0259534
462.0,0.0262396
470.0,0.0265727
478.0,0.02685
486.0,0.0272642
494.0,0.0277083
502.0,0.0282586
510.0,0.0288034
518.0,0.0293955
526.0,0.0300294
534.0,0.0308442
542.0,0.0317986
550.0,0.0328076
558.0,0.0340879
566.0,0.0352863
574.0,0.036479
582.0,0.037472
590.0,0.0386418
598.0,0.0394173
606.0,0.0402218
614.0,0.0409919
622.0,0.0417384
630.0,0.0426082
638.0,0.0432739
646.0,0.0439491
654.0,0.0446564
662.0,0.0454349
670.0,0.0461901
678.0,0.0468613
686.0,0.0477217
694.0,0.0485749
702.0,0.0491496
710.0,0.0499084
718.0,0.0512174
726.0,0.0518187
734.0,0.0524243
742.0,0.0531066
750.0,0.053919
758.0,0.0547836
766.0,0.0560776
774.0,0.0562232
782.0,0.0569953
790.0,0.0576856
798.0,0.0582805
806.0,0.058953
814.0,0.0598728
822.0,0.0603296
830.0,0.0607118
838.0,0.0610178
846.0,0.0613073
854.0,0.0617933
862.0,0.0620451
870.0,0.0625243
878.0,0.0629749
886.0,0.0632991
894.0,0.0637657
902.0,0.064074
910.0,0.0643626
918.0,0.064799
926.0,0.0648298
934.0,0.0652107
942.0,0.0646243
950.0,0.0636538
958.0,0.0641397
966.0,0.0640397
974.0,0.0634121
982.0,0.0643703
990.0,0.0643517
998.0,0.0649089
1006.0,0.0673241
1014.0,0.0684327
1022.0,0.0689286
1030.0,0.0693332
1038.0,0.0697004
1046.0,0.0700903
1054.0,0.0707168
1062.0,0.070775
1070.0,0.0709357
1078.0,0.0711015
1086.0,0.0714165
1094.0,0.0710936
1102.0,0.0721212
1110.0,0.0718213
1118.0,0.0729738
1126.0,0.0740841
1134.0,0.0716954
1142.0,0.0697186
1150.0,0.0686848
1158.0,0.0663842
1166.0,0.0658269
1174.0,0.0656647
1182.0,0.0652987
1190.0,0.0656171
1198.0,0.0653502
1206.0,0.0655674
1214.0,0.0658948
1222.0,0.066106
1230.0,0.0660465
1238.0,0.0664727
1246.0,0.066836
1254.0,0.067231
1262.0,0.0678851
1270.0,0.0680605
1278.0,0.0681246
1286.0,0.0677778
1294.0,0.0673521
1302.0,0.0667148
1310.0,0.0660458
1318.0,0.0648979
1326.0,0.0633957
1334.0,0.0624017
1342.0,0.0605448
1350.0,0.0614105
1358.0,0.0676082
1366.0,0.00890344
1374.0,0.100739
1382.0,0.076417
1390.0,0.0698195
1398.0,0.0580312
1406.0,0.0429314
1414.0,0.0276939
1422.0,0.0257083
1430.0,0.0237929
1438.0,0.0216581
1446.0,0.020636
1454.0,0.0182683
1462.0,0.0184586
1470.0,0.0187087
1478.0,0.0184708
1486.0,0.0194948
1494.0,0.0202627
1502.0,0.0213468
1510.0,0.0225803
1518.0,0.0241956
1526.0,0.0259591
1534.0,0.0278052
1542.0,0.0296082
1550.0,0.0312089
1558.0,0.0330603
1566.0,0.0349917
1574.0,0.0368492
1582.0,0.0384029
1590.0,0.0393388
1598.0,0.0408201
1606.0,0.0417442
1614.0,0.0430751
1622.0,0.0436983
1630.0,0.0442277
1638.0,0.0449628
1646.0,0.0459408
1654.0,0.0464353
1662.0,0.0470676
1670.0,0.0469412
1678.0,0.047491
1686.0,0.0477879
1694.0,0.0476162
1702.0,0.0473392
1710.0,0.0471432
1718.0,0.0465815
1726.0,0.046226
1734.0,0.0458237
1742.0,0.0449941
1750.0,0.0440528
1758.0,0.0419671
1766.0,0.0423293
1774.0,0.0414355
1782.0,0.041824
1790.0,0.0415546
1798.0,0.0439722
1806.0,0.0545116
1814.0,0.083636
1822.0,0.0882962
1830.0,0.134699
1838.0,0.0
1846.0,0.0
1854.0,0.0
1862.0,1.0
1870.0,1.0
1878.0,0.491348
1886.0,0.182109
1894.0,0.202055
1902.0,0.0
1910.0,0.215817
1918.0,0.249082
1926.0,0.0633304
1934.0,0.029049
1942.0,0.00840304
1950.0,0.0272081
1958.0,0.0342775
1966.0,0.0105237
1974.0,0.010525
1982.0,0.00947499
1990.0,0.0128262
1998.0,0.0106723
2006.0,0.026604
2014.0,0.0179572
2022.0,0.0124425
2030.0,0.0119712
2038.0,0.0112947
2046.0,0.0125581
2054.0,0.0128618
2062.0,0.0160214
2070.0,0.0191417
2078.0,0.0173779
2086.0,0.017101
2094.0,0.0173199
2102.0,0.0184604
2110.0,0.020981
2118.0,0.0207364
2126.0,0.0214966
2134.0,0.0232385
2142.0,0.0233523
2150.0,0.0239041
2158.0,0.0244917
2166.0,0.0256306
2174.0,0.0245915
2182.0,0.0261364
2190.0,0.0263175
2198.0,0.0257736
2206.0,0.025486
2214.0,0.0244336
2222.0,0.0245024
2230.0,0.0236342
2238.0,0.0257199
2246.0,0.0252832
2254.0,0.0278444
2262.0,0.0295119
2270.0,0.0245937
2278.0,0.0227523
2286.0,0.0231336
2294.0,0.0198337
2302.0,0.0235966
2310.0,0.0153545
2318.0,0.0195585
2326.0,0.0222074
2334.0,0.0241837
2342.0,0.0226894
2350.0,0.0182304
2358.0,0.0263395
2366.0,0.0205161
2374.0,0.0223741
2382.0,0.0199342
2390.0,0.0119181
2398.0,0.0163036
2406.0,0.0192516
2414.0,0.0331986
2422.0,0.0296619
2430.0,0.0181429
2438.0,0.0144555
2446.0,0.0397851
2454.0,0.0271288
2462.0,0.0
2470.0,0.00478984
2478.0,0.00702548
2486.0,0.113768
2494.0,0.0
2500.0,0.104679