File: data/spectra_ascii/AsphaltNassPfuetzen___corthum00444.txt
Wavelength (nm),Reflectance
350.0,0.025173
358.0,0.0245508
366.0,0.0242277
374.0,0.0243275
382.0,0.0242211
390.0,0.024066
398.0,0.0243809
406.0,0.0242254
414.0,0.024251
422.0,0.024531
430.0,0.0249089
438.0,0.0252347
446.0,0.0255075
454.0,0.0258424
462.0,0.0261662
470.0,0.0265074
478.0,0.0268196
486.0,0.027247
494.0,0.0276905
502.0,0.0282063
510.0,0.0287539
518.0,0.0293439
526.0,0.0299452
534.0,0.0307818
542.0,0.0317136
550.0,0.0326852
558.0,0.0339583
566.0,0.0351883
574.0,0.0363682
582.0,0.0374073
590.0,0.0385311
598.0,0.0393157
606.0,0.0401449
614.0,0.0409709
622.0,0.0417332
630.0,0.0426316
638.0,0.0433002
646.0,0.044015
654.0,0.0448051
662.0,0.045596
670.0,0.046325
678.0,0.0471029
686.0,0.0480506
694.0,0.0488848
702.0,0.0495739
710.0,0.050351
718.0,0.0517318
726.0,0.0524629
734.0,0.0530855
742.0,0.0538364
750.0,0.0547512
758.0,0.0556846
766.0,0.0570838
774.0,0.0573318
782.0,0.0581728
790.0,0.0589589
798.0,0.0597117
806.0,0.0604459
814.0,0.061543
822.0,0.0620705
830.0,0.0624452
838.0,0.0628427
846.0,0.0633097
854.0,0.063844
862.0,0.0642634
870.0,0.0646443
878.0,0.0651609
886.0,0.0656431
894.0,0.0662867
902.0,0.0666849
910.0,0.0671551
918.0,0.067287
926.0,0.0674913
934.0,0.0676846
942.0,0.0677364
950.0,0.0666984
958.0,0.0659566
966.0,0.0656851
974.0,0.0658873
982.0,0.0655452
990.0,0.0662458
998.0,0.0665503
1006.0,0.0698926
1014.0,0.0700093
1022.0,0.0707215
1030.0,0.0714497
1038.0,0.0721932
1046.0,0.0726472
1054.0,0.0734504
1062.0,0.0734807
1070.0,0.0739557
1078.0,0.0742163
1086.0,0.0741807
1094.0,0.0745774
1102.0,0.0744901
1110.0,0.0741429
1118.0,0.0752434
1126.0,0.0762388
1134.0,0.0742869
1142.0,0.0718809
1150.0,0.0688506
1158.0,0.0669884
1166.0,0.0660491
1174.0,0.0656253
1182.0,0.0653865
1190.0,0.0652896
1198.0,0.0651935
1206.0,0.0656263
1214.0,0.0654891
1222.0,0.0657142
1230.0,0.0660797
1238.0,0.0665476
1246.0,0.0669027
1254.0,0.0671538
1262.0,0.067954
1270.0,0.0679248
1278.0,0.0679215
1286.0,0.0673901
1294.0,0.0669121
1302.0,0.0660847
1310.0,0.065014
1318.0,0.0634557
1326.0,0.0613671
1334.0,0.0595689
1342.0,0.0577291
1350.0,0.0576777
1358.0,0.0592965
1366.0,0.0
1374.0,0.0899649
1382.0,0.0107095
1390.0,0.0210951
1398.0,0.014146
1406.0,0.0215445
1414.0,0.0260952
1422.0,0.0184936
1430.0,0.0160697
1438.0,0.0162111
1446.0,0.0133503
1454.0,0.0132746
1462.0,0.0124712
1470.0,0.0129925
1478.0,0.0128517
1486.0,0.0133301
1494.0,0.0138759
1502.0,0.0149196
1510.0,0.0160946
1518.0,0.01719
1526.0,0.0188358
1534.0,0.0204202
1542.0,0.0222179
1550.0,0.0237664
1558.0,0.0257089
1566.0,0.0270014
1574.0,0.0289421
1582.0,0.0308176
1590.0,0.0320788
1598.0,0.0332049
1606.0,0.0345202
1614.0,0.0360634
1622.0,0.0368008
1630.0,0.0374134
1638.0,0.0375374
1646.0,0.0384082
1654.0,0.0385525
1662.0,0.0392248
1670.0,0.039728
1678.0,0.040426
1686.0,0.0403412
1694.0,0.0406535
1702.0,0.0407902
1710.0,0.0402666
1718.0,0.0403032
1726.0,0.0389935
1734.0,0.0380849
1742.0,0.0377716
1750.0,0.0363305
1758.0,0.0350587
1766.0,0.0335496
1774.0,0.0322348
1782.0,0.033279
1790.0,0.0326409
1798.0,0.0346917
1806.0,0.0425843
1814.0,0.0360471
1822.0,0.0541015
1830.0,0.0378296
1838.0,0.0
1846.0,0.0
1854.0,0.0
1862.0,0.0
1870.0,0.329488
1878.0,0.300009
1886.0,0.0856967
1894.0,0.0
1902.0,1.0
1910.0,0.0
1918.0,0.00877251
1926.0,0.0616566
1934.0,0.0
1942.0,0.00895903
1950.0,0.0116415
1958.0,0.0
1966.0,0.00681323
1974.0,0.00857665
1982.0,0.0066099
1990.0,0.00539685
1998.0,0.00838124
2006.0,0.0
2014.0,0.0211039
2022.0,0.0105578
2030.0,0.0063027
2038.0,0.00651688
2046.0,0.00754357
2054.0,0.0139573
2062.0,0.00906945
2070.0,0.0105055
2078.0,0.00836702
2086.0,0.00789539
2094.0,0.00957659
2102.0,0.0121645
2110.0,0.011742
2118.0,0.0113781
2126.0,0.0146799
2134.0,0.0135557
2142.0,0.0174082
2150.0,0.0164345
2158.0,0.0136566
2166.0,0.0154485
2174.0,0.0163862
2182.0,0.0156358
2190.0,0.0178587
2198.0,0.0173219
2206.0,0.0145529
2214.0,0.0171721
2222.0,0.0179838
2230.0,0.0162537
2238.0,0.0134953
2246.0,0.0170673
2254.0,0.0164098
2262.0,0.01432
2270.0,0.0167487
2278.0,0.0141909
2286.0,0.0108992
2294.0,0.0118605
2302.0,0.0144742
2310.0,0.00901116
2318.0,0.0125972
2326.0,0.010706
2334.0,0.0126084
2342.0,0.0105209
2350.0,0.0100264
2358.0,0.0161037
2366.0,0.00710448
2374.0,0.00910039
2382.0,0.00411913
2390.0,0.0151048
2398.0,0.0112112
2406.0,0.0175743
2414.0,0.0167709
2422.0,0.0
2430.0,0.0
2438.0,0.0102316
2446.0,0.00121258
2454.0,0.0211458
2462.0,0.015654
2470.0,0.0
2478.0,0.0
2486.0,0.0
2494.0,0.0
2500.0,0.0