File: data/spectra_ascii/AsphaltTrockenVerschmutzung1___corthum00392.txt
Wavelength (nm),Reflectance
350.0,0.0748631
358.0,0.0768243
366.0,0.0792767
374.0,0.081926
382.0,0.0851829
390.0,0.0884461
398.0,0.0911808
406.0,0.0938109
414.0,0.0965152
422.0,0.0992423
430.0,0.102511
438.0,0.105765
446.0,0.108743
454.0,0.11147
462.0,0.113894
470.0,0.116121
478.0,0.118323
486.0,0.121092
494.0,0.124279
502.0,0.1275
510.0,0.130845
518.0,0.134384
526.0,0.138121
534.0,0.142427
542.0,0.147372
550.0,0.153132
558.0,0.159614
566.0,0.166144
574.0,0.172502
582.0,0.178302
590.0,0.183242
598.0,0.187492
606.0,0.191251
614.0,0.194548
622.0,0.197527
630.0,0.200484
638.0,0.20329
646.0,0.205954
654.0,0.208567
662.0,0.211245
670.0,0.213714
678.0,0.216112
686.0,0.218452
694.0,0.2207
702.0,0.222969
710.0,0.225225
718.0,0.227431
726.0,0.229788
734.0,0.232224
742.0,0.234623
750.0,0.237091
758.0,0.239655
766.0,0.241641
774.0,0.243956
782.0,0.245995
790.0,0.248034
798.0,0.250019
806.0,0.251896
814.0,0.253567
822.0,0.255363
830.0,0.257022
838.0,0.258709
846.0,0.260209
854.0,0.261762
862.0,0.263266
870.0,0.264613
878.0,0.266222
886.0,0.267719
894.0,0.26886
902.0,0.270198
910.0,0.271644
918.0,0.273159
926.0,0.274252
934.0,0.272074
942.0,0.275004
950.0,0.276187
958.0,0.278972
966.0,0.280631
974.0,0.28235
982.0,0.284327
990.0,0.284152
998.0,0.285636
1006.0,0.289991
1014.0,0.291091
1022.0,0.291823
1030.0,0.291923
1038.0,0.293023
1046.0,0.293322
1054.0,0.294349
1062.0,0.294569
1070.0,0.295978
1078.0,0.295864
1086.0,0.296487
1094.0,0.297686
1102.0,0.297371
1110.0,0.298282
1118.0,0.297537
1126.0,0.297121
1134.0,0.298667
1142.0,0.301491
1150.0,0.300855
1158.0,0.303813
1166.0,0.303972
1174.0,0.305624
1182.0,0.306112
1190.0,0.306814
1198.0,0.307678
1206.0,0.307971
1214.0,0.30843
1222.0,0.308488
1230.0,0.30899
1238.0,0.30909
1246.0,0.308898
1254.0,0.309433
1262.0,0.309108
1270.0,0.309417
1278.0,0.310335
1286.0,0.310464
1294.0,0.310777
1302.0,0.311373
1310.0,0.311383
1318.0,0.31196
1326.0,0.31205
1334.0,0.31196
1342.0,0.312893
1350.0,0.308187
1358.0,0.348387
1366.0,0.339973
1374.0,0.377103
1382.0,0.225292
1390.0,0.282126
1398.0,0.310706
1406.0,0.304626
1414.0,0.30731
1422.0,0.31048
1430.0,0.3135
1438.0,0.313308
1446.0,0.315924
1454.0,0.316408
1462.0,0.316793
1470.0,0.3184
1478.0,0.31969
1486.0,0.321021
1494.0,0.321958
1502.0,0.322779
1510.0,0.32321
1518.0,0.323907
1526.0,0.324684
1534.0,0.325062
1542.0,0.324901
1550.0,0.324885
1558.0,0.324325
1566.0,0.324258
1574.0,0.324203
1582.0,0.325232
1590.0,0.325129
1598.0,0.324331
1606.0,0.324885
1614.0,0.324435
1622.0,0.324605
1630.0,0.323653
1638.0,0.323545
1646.0,0.322824
1654.0,0.32316
1662.0,0.32334
1670.0,0.321717
1678.0,0.323597
1686.0,0.325091
1694.0,0.325831
1702.0,0.325382
1710.0,0.326363
1718.0,0.325817
1726.0,0.325262
1734.0,0.326651
1742.0,0.325596
1750.0,0.324851
1758.0,0.325132
1766.0,0.323815
1774.0,0.325497
1782.0,0.324184
1790.0,0.325026
1798.0,0.325486
1806.0,0.322718
1814.0,0.348967
1822.0,0.315539
1830.0,0.312092
1838.0,1.0
1846.0,0.0
1854.0,0.12855
1862.0,0.498344
1870.0,1.0
1878.0,0.736711
1886.0,0.278315
1894.0,0.542712
1902.0,0.290179
1910.0,0.292944
1918.0,0.334301
1926.0,0.240851
1934.0,0.356932
1942.0,0.318746
1950.0,0.318447
1958.0,0.314478
1966.0,0.3257
1974.0,0.318886
1982.0,0.319292
1990.0,0.322691
1998.0,0.323925
2006.0,0.327864
2014.0,0.336924
2022.0,0.328988
2030.0,0.327132
2038.0,0.329
2046.0,0.330586
2054.0,0.328986
2062.0,0.32878
2070.0,0.331803
2078.0,0.335896
2086.0,0.335927
2094.0,0.333014
2102.0,0.335943
2110.0,0.336716
2118.0,0.336296
2126.0,0.339133
2134.0,0.337325
2142.0,0.339055
2150.0,0.334602
2158.0,0.334213
2166.0,0.332966
2174.0,0.331016
2182.0,0.331109
2190.0,0.328838
2198.0,0.326649
2206.0,0.321818
2214.0,0.32112
2222.0,0.321938
2230.0,0.321954
2238.0,0.322986
2246.0,0.322777
2254.0,0.317494
2262.0,0.323298
2270.0,0.320715
2278.0,0.318198
2286.0,0.3225
2294.0,0.320793
2302.0,0.319599
2310.0,0.322319
2318.0,0.316134
2326.0,0.315158
2334.0,0.324725
2342.0,0.322404
2350.0,0.319756
2358.0,0.323105
2366.0,0.325039
2374.0,0.329578
2382.0,0.327547
2390.0,0.307314
2398.0,0.324964
2406.0,0.315298
2414.0,0.354752
2422.0,0.329744
2430.0,0.305959
2438.0,0.291623
2446.0,0.305133
2454.0,0.261567
2462.0,0.305942
2470.0,0.306407
2478.0,0.312044
2486.0,0.362549
2494.0,0.211932
2500.0,0.296268