File: data/spectra_ascii/AsphaltTrockenVerschmutzung2___corthum00455.txt
Wavelength (nm),Reflectance
350.0,0.0732121
358.0,0.0755838
366.0,0.0773767
374.0,0.0798378
382.0,0.0831416
390.0,0.0856627
398.0,0.0887381
406.0,0.0910339
414.0,0.0934397
422.0,0.0960584
430.0,0.0990516
438.0,0.101924
446.0,0.104833
454.0,0.107296
462.0,0.109604
470.0,0.11191
478.0,0.11407
486.0,0.116577
494.0,0.1193
502.0,0.122155
510.0,0.125039
518.0,0.128026
526.0,0.131093
534.0,0.134664
542.0,0.138763
550.0,0.14312
558.0,0.148128
566.0,0.153018
574.0,0.157604
582.0,0.161843
590.0,0.16579
598.0,0.169123
606.0,0.172349
614.0,0.175236
622.0,0.178085
630.0,0.180717
638.0,0.183384
646.0,0.185873
654.0,0.188153
662.0,0.190427
670.0,0.192414
678.0,0.194328
686.0,0.196045
694.0,0.197717
702.0,0.199167
710.0,0.200574
718.0,0.201929
726.0,0.203409
734.0,0.205036
742.0,0.206763
750.0,0.208473
758.0,0.210366
766.0,0.212151
774.0,0.213781
782.0,0.215426
790.0,0.217027
798.0,0.218628
806.0,0.220137
814.0,0.221479
822.0,0.222828
830.0,0.224154
838.0,0.225475
846.0,0.226656
854.0,0.227862
862.0,0.228826
870.0,0.229664
878.0,0.230655
886.0,0.231736
894.0,0.232917
902.0,0.233334
910.0,0.234379
918.0,0.235256
926.0,0.235922
934.0,0.2333
942.0,0.234495
950.0,0.23538
958.0,0.23625
966.0,0.238714
974.0,0.239222
982.0,0.239554
990.0,0.240322
998.0,0.240546
1006.0,0.245826
1014.0,0.246347
1022.0,0.246629
1030.0,0.247593
1038.0,0.247378
1046.0,0.247762
1054.0,0.248153
1062.0,0.248336
1070.0,0.248428
1078.0,0.24912
1086.0,0.248911
1094.0,0.24934
1102.0,0.249725
1110.0,0.249756
1118.0,0.250617
1126.0,0.249656
1134.0,0.248901
1142.0,0.249933
1150.0,0.249818
1158.0,0.251629
1166.0,0.251779
1174.0,0.252422
1182.0,0.252708
1190.0,0.253729
1198.0,0.25397
1206.0,0.254231
1214.0,0.254034
1222.0,0.253933
1230.0,0.25446
1238.0,0.254115
1246.0,0.254314
1254.0,0.254491
1262.0,0.253864
1270.0,0.25399
1278.0,0.253797
1286.0,0.254144
1294.0,0.254172
1302.0,0.254141
1310.0,0.254083
1318.0,0.254485
1326.0,0.254676
1334.0,0.254687
1342.0,0.255607
1350.0,0.25534
1358.0,0.287665
1366.0,0.529671
1374.0,0.648819
1382.0,0.362358
1390.0,0.269617
1398.0,0.25443
1406.0,0.243581
1414.0,0.247039
1422.0,0.250756
1430.0,0.252421
1438.0,0.252745
1446.0,0.254196
1454.0,0.256421
1462.0,0.258016
1470.0,0.256211
1478.0,0.258825
1486.0,0.260091
1494.0,0.261516
1502.0,0.262067
1510.0,0.261951
1518.0,0.262331
1526.0,0.262645
1534.0,0.262165
1542.0,0.262249
1550.0,0.262041
1558.0,0.261891
1566.0,0.261677
1574.0,0.261453
1582.0,0.26096
1590.0,0.260446
1598.0,0.26019
1606.0,0.259891
1614.0,0.258623
1622.0,0.258353
1630.0,0.258981
1638.0,0.258057
1646.0,0.258063
1654.0,0.257794
1662.0,0.257157
1670.0,0.257795
1678.0,0.257947
1686.0,0.257629
1694.0,0.257372
1702.0,0.2576
1710.0,0.257699
1718.0,0.256958
1726.0,0.256704
1734.0,0.256103
1742.0,0.25785
1750.0,0.257637
1758.0,0.255771
1766.0,0.256019
1774.0,0.256142
1782.0,0.254836
1790.0,0.253866
1798.0,0.253223
1806.0,0.25636
1814.0,0.302029
1822.0,0.241961
1830.0,0.374308
1838.0,0.0
1846.0,0.47922
1854.0,0.570842
1862.0,1.0
1870.0,0.610601
1878.0,1.0
1886.0,0.280762
1894.0,0.17828
1902.0,0.200556
1910.0,0.770814
1918.0,0.501209
1926.0,0.29821
1934.0,0.257668
1942.0,0.266313
1950.0,0.245705
1958.0,0.245787
1966.0,0.248664
1974.0,0.25336
1982.0,0.253199
1990.0,0.24983
1998.0,0.250707
2006.0,0.253652
2014.0,0.259418
2022.0,0.250116
2030.0,0.256123
2038.0,0.257038
2046.0,0.260319
2054.0,0.261795
2062.0,0.260306
2070.0,0.264579
2078.0,0.258585
2086.0,0.258933
2094.0,0.263189
2102.0,0.259782
2110.0,0.262737
2118.0,0.260388
2126.0,0.260678
2134.0,0.258363
2142.0,0.260413
2150.0,0.258569
2158.0,0.256947
2166.0,0.258677
2174.0,0.25274
2182.0,0.256355
2190.0,0.249781
2198.0,0.248425
2206.0,0.245202
2214.0,0.246158
2222.0,0.245609
2230.0,0.246521
2238.0,0.243504
2246.0,0.246099
2254.0,0.244257
2262.0,0.248495
2270.0,0.247263
2278.0,0.246062
2286.0,0.243756
2294.0,0.241869
2302.0,0.244618
2310.0,0.239457
2318.0,0.243558
2326.0,0.239979
2334.0,0.240255
2342.0,0.247032
2350.0,0.247629
2358.0,0.246066
2366.0,0.238686
2374.0,0.233726
2382.0,0.240506
2390.0,0.232134
2398.0,0.249372
2406.0,0.240352
2414.0,0.214115
2422.0,0.245536
2430.0,0.246191
2438.0,0.218487
2446.0,0.294618
2454.0,0.224521
2462.0,0.241536
2470.0,0.26143
2478.0,0.351875
2486.0,0.254679
2494.0,0.359705
2500.0,0.162363